time (s)	coil I (A)	last det (V)	int current (uC)
8615.642582	1.141838	0.841429	492.132355
8615.643726	1.620685	0.841429	2346.195801
8615.644679	1.594343	0.841429	3865.604980
8615.645542	1.553020	0.841429	5205.861328
8615.646577	1.505043	0.841429	6763.580566
8615.647608	1.459603	0.841429	8268.431641
8615.648506	1.421616	0.841429	9545.042969
8615.649462	1.383058	0.841429	10867.246094
8615.650529	1.341193	0.841429	12298.298828
8615.651461	1.305637	0.841429	13515.152344
8615.652340	0.742603	0.841429	14167.900391
8615.653402	0.089198	0.841429	14262.628906
8615.654399	0.085569	0.841429	14347.941406
8615.655295	0.085536	0.841429	14424.582031
8615.656267	0.085734	0.841429	14507.915039
8615.657324	0.085675	0.841429	14598.473633
8615.658237	0.085635	0.841429	14676.658203
8615.659097	0.085620	0.841429	14750.291016
8615.660166	0.085737	0.841429	14841.944336
8615.661147	0.085562	0.841429	14925.879883
8615.662034	0.085631	0.841429	15001.834961
8616.673735	1.092554	0.868906	466.520447
8616.674646	1.611606	0.868906	1934.693848
8616.675588	1.604758	0.868906	3446.375977
8616.676513	1.561604	0.868906	4890.859863
8616.677406	1.520405	0.868906	6248.582031
8616.678326	1.478178	0.868906	7608.505371
8616.679298	1.436957	0.868906	9005.227539
8616.680233	1.398574	0.868906	10312.894531
8616.681102	1.363411	0.868906	11497.698242
8616.682072	1.326709	0.868906	12784.605469
8616.683027	1.238049	0.868906	13966.942383
8616.683927	0.245325	0.868906	14187.734375
8616.684860	0.085638	0.868906	14267.634766
8616.685767	0.085598	0.868906	14345.272461
8616.686687	0.085627	0.868906	14424.049805
8616.687560	0.085668	0.868906	14498.837891
8616.688533	0.085653	0.868906	14582.178711
8616.689482	0.085642	0.868906	14663.453125
8616.690371	0.085664	0.868906	14739.608398
8616.691278	0.085613	0.868906	14817.258789
8616.692233	0.085646	0.868906	14899.050781
8617.756097	1.091862	0.457735	464.041168
8617.756964	1.611698	0.457735	1861.383301
8617.757926	1.607256	0.457735	3407.563477
8617.758890	1.562970	0.457735	4914.266602
8617.759792	1.520501	0.457735	6285.757812
8617.760667	1.479727	0.457735	7580.518555
8617.761633	1.438627	0.457735	8970.232422
8617.762599	1.399376	0.457735	10322.029297
8617.763494	1.364084	0.457735	11542.884766
8617.764427	1.328079	0.457735	12781.982422
8617.765375	1.245095	0.457735	13962.333008
8617.766315	0.242893	0.457735	14190.652344
8617.767173	0.085708	0.457735	14264.189453
8617.768079	0.085587	0.457735	14341.731445
8617.769035	0.085726	0.457735	14423.685547
8617.769961	0.085697	0.457735	14503.041016
8617.770823	0.085627	0.457735	14576.851562
8617.771792	0.085671	0.457735	14659.867187
8617.772746	0.085631	0.457735	14741.559570
8617.773633	0.085719	0.457735	14817.592773
8617.774545	0.085605	0.457735	14895.665039
8618.671561	1.096988	0.099493	477.189972
8618.672423	1.611746	0.099493	1866.514648
8618.673500	1.602579	0.099493	3592.492676
8618.674431	1.559018	0.099493	5043.938965
8618.675300	1.518420	0.099493	6363.446289
8618.676259	1.475098	0.099493	7778.064941
8618.677310	1.430244	0.099493	9281.251953
8618.678204	1.393641	0.099493	10527.166992
8618.679077	1.359346	0.099493	11713.875977
8618.680030	1.322845	0.099493	12974.547852
8618.681002	1.121920	0.099493	14065.054687
8618.681893	0.158031	0.099493	14205.860352
8618.682798	0.085664	0.099493	14283.386719
8618.683864	0.085664	0.099493	14374.705078
8618.684747	0.085631	0.099493	14450.317383
8618.685616	0.085646	0.099493	14524.743164
8618.686505	0.085741	0.099493	14600.966797
8618.687549	0.085613	0.099493	14690.346680
8618.688429	0.085690	0.099493	14765.753906
8618.689301	0.085693	0.099493	14840.478516
8618.690287	0.085704	0.099493	14924.983398
8619.753035	1.204563	0.135035	684.191711
8619.754035	1.622834	0.135035	2307.026123
8619.754925	1.598697	0.135035	3729.866699
8619.755787	1.556748	0.135035	5071.783203
8619.756861	1.508086	0.135035	6691.467773
8619.757789	1.466697	0.135035	8052.562500
8619.758671	1.429431	0.135035	9313.320312
8619.759658	1.389338	0.135035	10684.597656
8619.760676	1.349205	0.135035	12058.088867
8619.761576	1.314642	0.135035	13241.266602
8619.762443	0.962593	0.135035	14075.834961
8619.763565	0.098126	0.135035	14185.932617
8619.764488	0.085518	0.135035	14264.865234
8619.765367	0.085642	0.135035	14340.144531
8619.766355	0.085767	0.135035	14424.881836
8619.767350	0.085642	0.135035	14510.095703
8619.768233	0.085616	0.135035	14585.695312
8619.769090	0.085631	0.135035	14659.081055
8619.770169	0.085635	0.135035	14751.481445
8619.771076	0.085638	0.135035	14829.155273
8619.771940	0.085598	0.135035	14903.112305
8620.839478	1.206112	0.036248	644.063843
8620.840511	1.623691	0.036248	2321.337158
8620.841384	1.599196	0.036248	3717.435059
8620.842357	1.553701	0.036248	5229.186523
8620.843428	1.504307	0.036248	6840.298828
8620.844339	1.463218	0.036248	8173.290039
8620.845208	1.425322	0.036248	9411.895508
8620.846292	1.382285	0.036248	10910.292969
8620.847299	1.342917	0.036248	12262.611328
8620.848189	1.309208	0.036248	13427.806641
8620.849179	0.688894	0.036248	14109.811523
8620.850254	0.087946	0.036248	14204.352539
8620.851155	0.085686	0.036248	14281.555664
8620.852018	0.085649	0.036248	14355.470703
8620.853117	0.085759	0.036248	14449.719727
8620.854087	0.085569	0.036248	14532.721680
8620.854950	0.085708	0.036248	14606.687500
8620.855974	0.085697	0.036248	14694.441406
8620.856999	0.085635	0.036248	14782.216797
8620.857888	0.085642	0.036248	14858.352539
8620.858789	0.085767	0.036248	14935.627930
8621.791719	1.139674	0.208302	529.948425
8621.792641	1.617327	0.208302	2021.123535
8621.793535	1.605919	0.208302	3456.815186
8621.794451	1.563995	0.208302	4889.435059
8621.795430	1.518710	0.208302	6376.251953
8621.796355	1.476478	0.208302	7741.994141
8621.797227	1.438759	0.208302	8996.591797
8621.798177	1.399893	0.208302	10326.490234
8621.799119	1.362162	0.208302	11609.646484
8621.800054	1.326599	0.208302	12850.016602
8621.800923	1.249193	0.208302	13935.565430
8621.801882	0.245178	0.208302	14170.691406
8621.802834	0.085554	0.208302	14252.138672
8621.803724	0.085580	0.208302	14328.304687
8621.804632	0.085646	0.208302	14406.071289
8621.805571	0.085627	0.208302	14486.475586
8621.806498	0.085584	0.208302	14565.811523
8621.807372	0.085682	0.208302	14640.698242
8621.808367	0.085627	0.208302	14725.897461
8621.809309	0.085624	0.208302	14806.554687
8621.810239	0.085613	0.208302	14886.174805
8622.854625	1.151441	0.231195	521.602539
8622.855571	1.617847	0.231195	2052.085449
8622.856448	1.606102	0.231195	3460.637207
8622.857379	1.562959	0.231195	4915.751953
8622.858330	1.518915	0.231195	6360.240234
8622.859238	1.477361	0.231195	7701.683594
8622.860120	1.439066	0.231195	8970.939453
8622.861071	1.400284	0.231195	10302.610352
8622.862018	1.363074	0.231195	11593.441406
8622.862921	1.328016	0.231195	12792.640625
8622.863826	1.275681	0.231195	13947.131836
8622.864758	0.261068	0.231195	14190.447266
8622.865714	0.085605	0.231195	14272.286133
8622.866594	0.085682	0.231195	14347.686523
8622.867519	0.085638	0.231195	14426.902344
8622.868462	0.085638	0.231195	14507.659180
8622.869379	0.085624	0.231195	14586.175781
8622.870237	0.085642	0.231195	14659.656250
8622.871158	0.085609	0.231195	14738.501953
8622.872101	0.085671	0.231195	14819.290039
8622.873020	0.085613	0.231195	14897.967773
8623.874540	1.141007	0.226429	531.709290
8623.875432	1.615247	0.226429	1972.509277
8623.876296	1.607168	0.226429	3361.102539
8623.877292	1.562981	0.226429	4917.831543
8623.878219	1.519801	0.226429	6326.687012
8623.879092	1.479294	0.226429	7618.111328
8623.880030	1.440267	0.226429	8969.082031
8623.880965	1.400321	0.226429	10278.382812
8623.881901	1.363378	0.226429	11554.503906
8623.882793	1.328914	0.226429	12739.894531
8623.883711	1.272385	0.226429	13907.944336
8623.884667	0.270150	0.226429	14166.208008
8623.885585	0.085701	0.226429	14244.880859
8623.886450	0.085543	0.226429	14318.875977
8623.887420	0.085734	0.226429	14402.038086
8623.888345	0.085642	0.226429	14481.256836
8623.889223	0.085682	0.226429	14556.486328
8623.890096	0.085686	0.226429	14631.290039
8623.891062	0.085609	0.226429	14713.988281
8623.891990	0.085649	0.226429	14793.470703
8623.892854	0.085708	0.226429	14867.522461
8624.924098	1.089635	0.206384	467.453430
8624.924968	1.611493	0.206384	1869.452393
8624.925845	1.608735	0.206384	3280.313232
8624.926891	1.562135	0.206384	4914.306641
8624.927791	1.520457	0.206384	6282.717773
8624.928672	1.480477	0.206384	7587.018555
8624.929679	1.438224	0.206384	9035.309570
8624.930603	1.398940	0.206384	10327.930664
8624.931531	1.362931	0.206384	11592.730469
8624.932397	1.327584	0.206384	12742.417969
8624.933426	1.203186	0.206384	13980.496094
8624.934322	0.216061	0.206384	14174.086914
8624.935193	0.085605	0.206384	14248.649414
8624.936166	0.085576	0.206384	14331.915039
8624.937112	0.085613	0.206384	14412.904297
8624.938029	0.085609	0.206384	14491.408203
8624.938890	0.085616	0.206384	14565.124023
8624.939944	0.085594	0.206384	14655.340820
8624.940829	0.085580	0.206384	14731.079102
8624.941701	0.085649	0.206384	14805.765625
8624.942631	0.085624	0.206384	14885.395508
8625.948089	1.083995	0.238824	457.446045
8625.949089	1.613569	0.238824	2071.015381
8625.950098	1.598965	0.238824	3684.370850
8625.950988	1.557371	0.238824	5070.430664
8625.951857	1.515531	0.238824	6387.426758
8625.952968	1.467689	0.238824	8018.029297
8625.953892	1.427937	0.238824	9337.443359
8625.954776	1.391832	0.238824	10567.823242
8625.955795	1.352743	0.238824	11946.268555
8625.956785	1.313903	0.238824	13247.032227
8625.957679	0.983353	0.238824	14126.150391
8625.958534	0.125061	0.238824	14233.077148
8625.959622	0.085671	0.238824	14326.288086
8625.960522	0.085675	0.238824	14403.395508
8625.961388	0.085675	0.238824	14477.589844
8625.962359	0.085704	0.238824	14560.808594
8625.963355	0.085624	0.238824	14646.089844
8625.964250	0.085602	0.238824	14722.703125
8625.965113	0.085715	0.238824	14796.675781
8625.966196	0.085635	0.238824	14889.417969
8625.967121	0.085565	0.238824	14968.565430
8627.007934	1.092682	0.222155	462.204437
8627.009006	1.618238	0.222155	2196.956055
8627.010001	1.596431	0.222155	3785.404541
8627.010891	1.554888	0.222155	5169.254883
8627.011753	1.513114	0.222155	6473.559082
8627.012853	1.466378	0.222155	8086.575195
8627.013740	1.427399	0.222155	9352.677734
8627.014623	1.391634	0.222155	10581.491211
8627.015604	1.353387	0.222155	11909.164062
8627.016613	1.314382	0.222155	13235.375977
8627.017513	0.991377	0.222155	14127.615234
8627.018374	0.126270	0.222155	14236.333008
8627.019460	0.085649	0.222155	14329.348633
8627.020380	0.085609	0.222155	14408.109375
8627.021258	0.085649	0.222155	14483.309570
8627.022224	0.085693	0.222155	14566.089844
8627.023236	0.085558	0.222155	14652.674805
8627.024118	0.085594	0.222155	14728.168945
8627.024976	0.085602	0.222155	14801.615234
8627.026058	0.085664	0.222155	14894.303711
8627.026981	0.085620	0.222155	14973.331055
8628.025873	1.163547	0.227706	586.427917
8628.026818	1.619506	0.227706	2116.860596
8628.027680	1.603568	0.227706	3499.136230
8628.028729	1.554968	0.227706	5130.297852
8628.029757	1.507533	0.227706	6680.041992
8628.030652	1.467480	0.227706	7993.437012
8628.031615	1.427362	0.227706	9367.986328
8628.032666	1.384208	0.227706	10822.789062
8628.033594	1.347909	0.227706	12073.648437
8628.034464	1.313588	0.227706	13216.469727
8628.035555	0.750084	0.227706	14034.811523
8628.036546	0.090161	0.227706	14124.161133
8628.037431	0.085551	0.227706	14199.873047
8628.038399	0.085690	0.227706	14282.820312
8628.039439	0.085737	0.227706	14371.987305
8628.040346	0.085624	0.227706	14449.648437
8628.041206	0.085653	0.227706	14523.310547
8628.042285	0.085803	0.227706	14615.892578
8628.043276	0.085693	0.227706	14700.814453
8628.044157	0.085715	0.227706	14776.330078
8628.045138	0.085818	0.227706	14860.517578
8629.080502	1.080026	0.240408	452.530762
8629.081452	1.610739	0.240408	1982.732300
8629.082501	1.599646	0.240408	3660.760742
8629.083441	1.555792	0.240408	5123.205566
8629.084309	1.514656	0.240408	6437.926758
8629.085367	1.468041	0.240408	7991.113770
8629.086374	1.425410	0.240408	9426.501953
8629.087263	1.389093	0.240408	10661.405273
8629.088244	1.351241	0.240408	11986.972656
8629.089285	1.311123	0.240408	13351.851562
8629.090205	0.855220	0.240408	14138.653320
8629.091060	0.105117	0.240408	14228.528320
8629.092131	0.085686	0.240408	14320.297852
8629.093108	0.085627	0.240408	14403.956055
8629.093984	0.085675	0.240408	14479.007812
8629.094967	0.085712	0.240408	14563.262695
8629.096020	0.085693	0.240408	14653.498047
8629.096920	0.085642	0.240408	14730.576172
8629.097782	0.085598	0.240408	14804.361328
8629.098867	0.085759	0.240408	14897.410156
8629.099832	0.085605	0.240408	14980.019531
8630.101495	1.119130	0.256493	528.229187
8630.102381	1.615452	0.256493	1959.519287
8630.103259	1.606516	0.256493	3370.040527
8630.104227	1.562340	0.256493	4882.385742
8630.105181	1.518541	0.256493	6331.074219
8630.106060	1.478148	0.256493	7630.366211
8630.106981	1.438612	0.256493	8955.328125
8630.107941	1.399222	0.256493	10298.582031
8630.108869	1.362656	0.256493	11563.126953
8630.109751	1.328156	0.256493	12734.560547
8630.110709	1.257451	0.256493	13939.199219
8630.111643	0.234155	0.256493	14157.900391
8630.112566	0.085551	0.256493	14236.863281
8630.113427	0.085576	0.256493	14310.543945
8630.114401	0.085646	0.256493	14393.962891
8630.115339	0.085576	0.256493	14474.233398
8630.116229	0.085605	0.256493	14550.421875
8630.117116	0.085649	0.256493	14626.392578
8630.118049	0.085690	0.256493	14706.340820
8630.118999	0.085635	0.256493	14787.693359
8630.119890	0.085616	0.256493	14863.977539
8631.159225	1.083245	0.242869	456.046021
8631.160148	1.613383	0.242869	1945.198120
8631.161126	1.603235	0.242869	3513.161865
8631.162055	1.560747	0.242869	4963.095703
8631.162926	1.519567	0.242869	6286.638184
8631.163906	1.476119	0.242869	7733.235352
8631.164854	1.435737	0.242869	9094.314453
8631.165750	1.398347	0.242869	10347.233398
8631.166665	1.363004	0.242869	11594.381836
8631.167624	1.325859	0.242869	12865.880859
8631.168523	1.247300	0.242869	13987.203125
8631.169399	0.258406	0.242869	14213.566406
8631.170356	0.085664	0.242869	14295.546875
8631.171293	0.085602	0.242869	14375.755859
8631.172185	0.085587	0.242869	14452.099609
8631.173101	0.085591	0.242869	14530.500977
8631.174065	0.085613	0.242869	14613.031250
8631.174988	0.085554	0.242869	14691.998047
8631.175858	0.085624	0.242869	14766.491211
8631.176833	0.085540	0.242869	14849.892578
8631.177768	0.085671	0.242869	14929.995117
8632.178101	1.079253	0.244347	453.286255
8632.179035	1.610057	0.244347	1957.079834
8632.179970	1.604326	0.244347	3457.125000
8632.180900	1.561783	0.244347	4909.583496
8632.181783	1.521083	0.244347	6252.699707
8632.182746	1.477815	0.244347	7675.835449
8632.183691	1.437188	0.244347	9033.977539
8632.184582	1.400229	0.244347	10281.582031
8632.185551	1.362730	0.244347	11602.067383
8632.186481	1.325680	0.244347	12834.949219
8632.187390	1.238390	0.244347	13960.645508
8632.188283	0.251741	0.244347	14185.450195
8632.189247	0.085869	0.244347	14268.228516
8632.190173	0.085668	0.244347	14347.556641
8632.191087	0.085532	0.244347	14425.733398
8632.191964	0.085712	0.244347	14500.902344
8632.192889	0.085591	0.244347	14580.074219
8632.193842	0.085642	0.244347	14661.691406
8632.194727	0.085624	0.244347	14737.468750
8632.195942	0.085679	0.244347	14841.568359
8632.196836	0.085569	0.244347	14918.067383
8633.232859	1.107360	0.254366	491.667633
8633.233733	1.612269	0.254366	1900.791016
8633.234595	1.609219	0.254366	3287.937500
8633.235625	1.562472	0.254366	4897.283691
8633.236527	1.519285	0.254366	6267.678711
8633.237455	1.478005	0.254366	7639.267578
8633.238326	1.438715	0.254366	8892.387695
8633.239380	1.396534	0.254366	10364.334961
8633.240277	1.361785	0.254366	11585.855469
8633.241159	1.327617	0.254366	12756.813477
8633.242175	1.195291	0.254366	13971.228516
8633.243106	0.194542	0.254366	14152.347656
8633.244021	0.085514	0.254366	14230.592773
8633.244882	0.085679	0.254366	14304.362305
8633.245921	0.085649	0.254366	14393.351562
8633.246802	0.085591	0.254366	14468.756836
8633.247668	0.085591	0.254366	14542.878906
8633.248632	0.085701	0.254366	14625.494141
8633.249572	0.085620	0.254366	14705.976562
8633.250479	0.085616	0.254366	14783.630859
8633.251356	0.085653	0.254366	14858.749023
8634.253757	1.094249	0.275526	466.150177
8634.254825	1.617667	0.275526	2193.818848
8634.255848	1.595017	0.275526	3825.521484
8634.256725	1.553448	0.275526	5187.895508
8634.257715	1.508771	0.275526	6681.578613
8634.258759	1.461771	0.275526	8207.667969
8634.259669	1.423125	0.275526	9502.711914
8634.260539	1.387540	0.275526	10709.872070
8634.261519	1.349524	0.275526	12032.405273
8634.262529	1.310284	0.275526	13355.792969
8634.263435	0.871150	0.275526	14145.054687
8634.264298	0.106044	0.275526	14236.570312
8634.265380	0.085741	0.275526	14329.341797
8634.266306	0.085671	0.275526	14408.673828
8634.267182	0.085649	0.275526	14483.703125
8634.268148	0.085734	0.275526	14566.521484
8634.269152	0.085712	0.275526	14652.576172
8634.270043	0.085748	0.275526	14728.977539
8634.270902	0.085697	0.275526	14802.590820
8634.271967	0.085712	0.275526	14893.874023
8634.272889	0.085668	0.275526	14972.859375
8635.311635	1.175574	0.252654	599.542603
8635.312595	1.620253	0.252654	2154.985352
8635.313465	1.602539	0.252654	3549.194336
8635.314535	1.552764	0.252654	5210.651367
8635.315574	1.505453	0.252654	6774.816895
8635.316470	1.464866	0.252654	8087.336914
8635.317396	1.425824	0.252654	9407.650391
8635.318460	1.382450	0.252654	10878.577148
8635.319417	1.344994	0.252654	12165.736328
8635.320287	1.311412	0.252654	13306.665039
8635.321353	0.707073	0.252654	14060.404297
8635.322379	0.088879	0.252654	14151.594727
8635.323261	0.085591	0.252654	14227.085937
8635.324228	0.085715	0.252654	14309.972656
8635.325272	0.085697	0.252654	14399.440430
8635.326191	0.085594	0.252654	14478.101562
8635.327051	0.085664	0.252654	14551.772461
8635.328115	0.085657	0.252654	14642.911133
8635.329125	0.085712	0.252654	14729.479492
8635.329993	0.085642	0.252654	14803.816406
8635.330968	0.085719	0.252654	14887.392578
8636.331462	1.096457	0.258942	475.862549
8636.332328	1.611255	0.258942	1871.209229
8636.333313	1.605970	0.258942	3453.090088
8636.334248	1.562311	0.258942	4913.850586
8636.335128	1.521021	0.258942	6252.348633
8636.336017	1.480580	0.258942	7568.583984
8636.336968	1.439506	0.258942	8937.553711
8636.337910	1.400252	0.258942	10256.590820
8636.338804	1.365209	0.258942	11477.087891
8636.339725	1.329207	0.258942	12701.287109
8636.340682	1.264050	0.258942	13910.983398
8636.341607	0.280166	0.258942	14170.136719
8636.342482	0.085814	0.258942	14245.224609
8636.343432	0.085551	0.258942	14326.498047
8636.344361	0.085657	0.258942	14406.073242
8636.345285	0.085642	0.258942	14485.206055
8636.346150	0.085671	0.258942	14559.311523
8636.347121	0.085631	0.258942	14642.458984
8636.348071	0.085598	0.258942	14723.777344
8636.348945	0.085693	0.258942	14798.673828
8636.349856	0.085594	0.258942	14876.650391
8637.386239	1.121155	0.269677	540.396606
8637.387120	1.615199	0.269677	1963.386841
8637.388042	1.604835	0.269677	3443.044922
8637.388925	1.564065	0.269677	4824.114258
8637.389856	1.520215	0.269677	6239.434082
8637.390812	1.477229	0.269677	7651.665039
8637.391709	1.438846	0.269677	8942.310547
8637.392732	1.395941	0.269677	10370.358398
8637.393704	1.358024	0.269677	11690.357422
8637.394633	1.322761	0.269677	12919.202148
8637.395501	1.191456	0.269677	13953.386719
8637.396479	0.193649	0.269677	14142.775391
8637.397429	0.085510	0.269677	14224.009766
8637.398319	0.085635	0.269677	14300.224609
8637.399225	0.085510	0.269677	14377.697266
8637.400143	0.085547	0.269677	14456.229492
8637.401085	0.085565	0.269677	14536.832031
8637.401973	0.085627	0.269677	14612.869141
8637.402887	0.085591	0.269677	14691.099609
8637.403853	0.085569	0.269677	14773.758789
8637.404778	0.085598	0.269677	14852.937500
8638.407115	1.096780	0.280683	478.195953
8638.407979	1.610830	0.280683	1869.953125
8638.408927	1.605549	0.280683	3392.013916
8638.409860	1.562549	0.280683	4849.872070
8638.410778	1.520687	0.280683	6245.862793
8638.411647	1.479950	0.280683	7531.939453
8638.412649	1.438389	0.280683	8973.205078
8638.413573	1.400156	0.280683	10266.949219
8638.414459	1.365194	0.280683	11476.511719
8638.415373	1.329738	0.280683	12691.891602
8638.416335	1.277508	0.280683	13920.854492
8638.417235	0.307126	0.280683	14197.268555
8638.418110	0.086034	0.280683	14272.547852
8638.419099	0.085631	0.280683	14357.237305
8638.420026	0.085532	0.280683	14436.525391
8638.420913	0.085543	0.280683	14512.402344
8638.421858	0.085704	0.280683	14593.392578
8638.422792	0.085569	0.280683	14673.313477
8638.423712	0.085613	0.280683	14752.077148
8638.424589	0.085616	0.280683	14827.163086
8638.425507	0.085649	0.280683	14905.789062
8639.462858	1.103573	0.275905	481.157806
8639.463729	1.611237	0.275905	1884.544922
8639.464719	1.604817	0.275905	3473.313721
8639.465662	1.561051	0.275905	4945.384766
8639.466582	1.518571	0.275905	6342.469727
8639.467450	1.478251	0.275905	7625.591309
8639.468461	1.435518	0.275905	9076.899414
8639.469365	1.397963	0.275905	10340.658203
8639.470244	1.363359	0.275905	11539.050781
8639.471176	1.327057	0.275905	12775.868164
8639.472178	1.221328	0.275905	13999.638672
8639.473096	0.208898	0.275905	14191.407227
8639.473975	0.085591	0.275905	14266.641602
8639.475061	0.085657	0.275905	14359.665039
8639.475958	0.085642	0.275905	14436.486328
8639.476830	0.085624	0.275905	14511.150391
8639.477700	0.085715	0.275905	14585.722656
8639.478742	0.085591	0.275905	14674.908203
8639.479621	0.085543	0.275905	14750.100586
8639.480487	0.085540	0.275905	14824.177734
8639.481455	0.085712	0.275905	14907.146484
8640.486928	1.132551	0.284437	577.601135
8640.487970	1.619663	0.284437	2265.290039
8640.488918	1.595548	0.284437	3777.869629
8640.489781	1.554478	0.284437	5119.383789
8640.490845	1.506086	0.284437	6721.859375
8640.491866	1.460636	0.284437	8213.168945
8640.492749	1.423315	0.284437	9469.956055
8640.493725	1.384259	0.284437	10820.993164
8640.494773	1.343122	0.284437	12228.585937
8640.495690	1.307937	0.284437	13427.963867
8640.496560	0.803679	0.284437	14127.165039
8640.497621	0.091256	0.284437	14223.987305
8640.498616	0.085602	0.284437	14309.161133
8640.499502	0.085668	0.284437	14385.062500
8640.500476	0.085712	0.284437	14468.545898
8640.501525	0.085715	0.284437	14558.460937
8640.502441	0.085576	0.284437	14636.848633
8640.503304	0.085657	0.284437	14710.770508
8640.504403	0.085701	0.284437	14804.955078
8640.505364	0.085642	0.284437	14887.256836
8640.506245	0.085646	0.284437	14962.710937
8641.534473	1.158336	0.274793	579.168091
8641.535413	1.618982	0.274793	2101.011230
8641.536281	1.603707	0.274793	3493.029297
8641.537347	1.554459	0.274793	5150.083008
8641.538376	1.506804	0.274793	6700.584473
8641.539271	1.466865	0.274793	8013.428711
8641.540224	1.427054	0.274793	9373.411133
8641.541263	1.384186	0.274793	10811.580078
8641.542196	1.347817	0.274793	12069.093750
8641.543064	1.314020	0.274793	13209.663086
8641.544141	0.778879	0.274793	14048.516602
8641.545150	0.091289	0.274793	14140.626953
8641.546028	0.085547	0.274793	14215.737305
8641.547003	0.085642	0.274793	14299.238281
8641.548059	0.085671	0.274793	14389.707031
8641.548962	0.085653	0.274793	14467.051758
8641.549818	0.085708	0.274793	14540.417969
8641.550879	0.085701	0.274793	14631.346680
8641.551865	0.085660	0.274793	14715.807617
8641.552752	0.085551	0.274793	14791.691406
8641.553732	0.085807	0.274793	14875.782227
8642.561467	1.082234	0.301964	458.867126
8642.562383	1.612009	0.301964	1935.467529
8642.563360	1.603381	0.301964	3501.971191
8642.564282	1.560831	0.301964	4941.057617
8642.565149	1.519940	0.301964	6258.845703
8642.566120	1.477013	0.301964	7693.025391
8642.567069	1.436580	0.301964	9056.339844
8642.567968	1.398977	0.301964	10314.020508
8642.568880	1.363103	0.301964	11557.170898
8642.569809	1.325684	0.301964	12788.730469
8642.570763	1.227843	0.301964	13960.092773
8642.571659	0.240806	0.301964	14175.854492
8642.572573	0.085781	0.301964	14254.258789
8642.573538	0.085576	0.301964	14336.839844
8642.574468	0.085602	0.301964	14416.449219
8642.575329	0.085594	0.301964	14490.146484
8642.576298	0.085638	0.301964	14573.129883
8642.577249	0.085646	0.301964	14654.579102
8642.578136	0.085627	0.301964	14730.530273
8642.579018	0.085638	0.301964	14806.063477
8642.579954	0.085602	0.301964	14886.186523
8643.611060	1.093407	0.278717	459.230957
8643.612043	1.615565	0.278717	2047.331543
8643.612943	1.603466	0.278717	3490.450684
8643.613838	1.562549	0.278717	4888.931641
8643.614794	1.518878	0.278717	6340.979492
8643.615724	1.476006	0.278717	7713.665039
8643.616644	1.436840	0.278717	9035.557617
8643.617526	1.400402	0.278717	10270.711914
8643.618497	1.361305	0.278717	11592.539062
8643.619452	1.324735	0.278717	12857.661133
8643.620384	1.232805	0.278717	14006.635742
8643.621257	0.243303	0.278717	14219.039062
8643.622221	0.085477	0.278717	14301.439453
8643.623164	0.085529	0.278717	14382.092773
8643.624035	0.085598	0.278717	14456.648437
8643.624907	0.085573	0.278717	14531.267578
8643.625871	0.085536	0.278717	14613.724609
8643.626793	0.085551	0.278717	14692.602539
8643.627656	0.085551	0.278717	14766.432617
8643.628660	0.085664	0.278717	14852.439453
8643.629602	0.085627	0.278717	14933.100586
8644.639175	1.101958	0.298717	477.147827
8644.640044	1.610753	0.298717	1876.892334
8644.641041	1.603868	0.298717	3475.949219
8644.641961	1.560791	0.298717	4911.876953
8644.642875	1.518915	0.298717	6300.165039
8644.643757	1.477830	0.298717	7603.610840
8644.644804	1.434093	0.298717	9105.106445
8644.645703	1.397018	0.298717	10361.025391
8644.646583	1.362568	0.298717	11560.085937
8644.647559	1.325292	0.298717	12853.570312
8644.648521	1.182484	0.298717	13991.120117
8644.649456	0.189401	0.298717	14168.209961
8644.650320	0.085525	0.298717	14242.103516
8644.651353	0.085631	0.298717	14330.560547
8644.652230	0.085690	0.298717	14405.709961
8644.653094	0.085653	0.298717	14479.713867
8644.654033	0.085620	0.298717	14560.111328
8644.655010	0.085576	0.298717	14643.719727
8644.655931	0.085525	0.298717	14722.488281
8644.656810	0.085682	0.298717	14797.802734
8644.657856	0.085649	0.298717	14887.391602
8645.685710	1.117932	0.292768	496.361908
8645.686588	1.611921	0.292768	1911.628906
8645.687609	1.602803	0.292768	3548.090576
8645.688533	1.558986	0.292768	4988.593262
8645.689453	1.516952	0.292768	6384.188965
8645.690318	1.476387	0.292768	7661.263672
8645.691358	1.433372	0.292768	9151.969727
8645.692235	1.396571	0.292768	10376.762695
8645.693115	1.362122	0.292768	11575.429687
8645.694083	1.325112	0.292768	12858.138672
8645.695034	1.196785	0.292768	13996.281250
8645.695957	0.199841	0.292768	14180.734375
8645.696829	0.085551	0.292768	14255.333984
8645.697863	0.085664	0.292768	14343.910156
8645.698760	0.085565	0.292768	14420.662109
8645.699634	0.085682	0.292768	14495.548828
8645.700531	0.085602	0.292768	14572.333984
8645.701539	0.085569	0.292768	14658.586914
8645.702429	0.085624	0.292768	14734.791992
8645.703295	0.085616	0.292768	14808.935547
8645.704269	0.085657	0.292768	14892.365234
8646.716853	1.086259	0.312921	455.142334
8646.717895	1.618531	0.312921	2141.652100
8646.718786	1.601400	0.312921	3568.499512
8646.719711	1.558674	0.312921	5010.273437
8646.720578	1.517673	0.312921	6326.096191
8646.721581	1.473486	0.312921	7804.002930
8646.722508	1.434042	0.312921	9133.359375
8646.723392	1.397413	0.312921	10368.672852
8646.724305	1.361268	0.312921	11611.510742
8646.725259	1.323772	0.312921	12874.389648
8646.726180	1.219834	0.312921	13997.856445
8646.727062	0.231508	0.312921	14202.045898
8646.728082	0.085521	0.312921	14289.277344
8646.728977	0.085543	0.312921	14365.838867
8646.729886	0.085602	0.312921	14443.651367
8646.730747	0.085573	0.312921	14517.329102
8646.731746	0.085649	0.312921	14602.892578
8646.732663	0.085638	0.312921	14681.422852
8646.733538	0.085627	0.312921	14756.346680
8646.734460	0.085554	0.312921	14835.227539
8646.735389	0.085624	0.312921	14914.772461
8647.761351	1.100834	0.303282	476.661011
8647.762234	1.611738	0.303282	1899.825928
8647.763108	1.608501	0.303282	3305.655762
8647.764108	1.563534	0.303282	4869.189941
8647.765035	1.519193	0.303282	6277.481934
8647.765951	1.477837	0.303282	7631.180664
8647.766831	1.440403	0.303282	8898.735352
8647.767782	1.401522	0.303282	10231.583008
8647.768726	1.364015	0.303282	11519.212891
8647.769601	1.329591	0.303282	12682.605469
8647.770550	1.250592	0.303282	13869.416992
8647.771514	0.260204	0.303282	14120.253906
8647.772425	0.085657	0.303282	14198.287109
8647.773303	0.085649	0.303282	14273.487305
8647.774254	0.085635	0.303282	14354.925781
8647.775170	0.085598	0.303282	14433.333984
8647.776098	0.085616	0.303282	14512.786133
8647.776960	0.085631	0.303282	14586.600586
8647.777993	0.085646	0.303282	14675.072266
8647.778878	0.085620	0.303282	14750.845703
8647.779793	0.085646	0.303282	14829.211914
8648.792505	1.078861	0.316660	453.121674
8648.793365	1.608497	0.316660	1836.429443
8648.794434	1.601627	0.316660	3548.568848
8648.795330	1.560048	0.316660	4946.371582
8648.796208	1.519365	0.316660	6280.374023
8648.797190	1.475530	0.316660	7729.344238
8648.798151	1.433837	0.316660	9107.261719
8648.799080	1.396014	0.316660	10404.159180
8648.799949	1.360814	0.316660	11586.707031
8648.801000	1.321249	0.316660	12975.339844
8648.801889	1.180170	0.316660	14024.510742
8648.802762	0.201017	0.316660	14199.998047
8648.803713	0.085609	0.316660	14281.412109
8648.804672	0.085558	0.316660	14363.461914
8648.805581	0.085712	0.316660	14441.374023
8648.806457	0.085620	0.316660	14516.376953
8648.807484	0.085704	0.316660	14604.395508
8648.808381	0.085653	0.316660	14681.226562
8648.809252	0.085679	0.316660	14755.852539
8648.810130	0.085675	0.316660	14831.075195
8648.811170	0.085591	0.316660	14920.089844
8649.838027	1.096860	0.317570	479.328003
8649.838896	1.611024	0.317570	1879.307983
8649.839865	1.604747	0.317570	3434.308105
8649.840892	1.557169	0.317570	5033.520996
8649.841787	1.515868	0.317570	6390.222656
8649.842656	1.475713	0.317570	7672.617187
8649.843726	1.430651	0.317570	9203.413086
8649.844666	1.392169	0.317570	10512.051758
8649.845548	1.357800	0.317570	11709.631836
8649.846518	1.321025	0.317570	12991.026367
8649.847540	1.042903	0.317570	14056.873047
8649.848435	0.133242	0.317570	14176.125000
8649.849295	0.085613	0.317570	14249.751953
8649.850369	0.085715	0.317570	14341.810547
8649.851307	0.085642	0.317570	14422.142578
8649.852178	0.085660	0.317570	14496.752930
8649.853125	0.085697	0.317570	14577.908203
8649.854162	0.085664	0.317570	14666.742187
8649.855037	0.085638	0.317570	14741.675781
8649.855898	0.085712	0.317570	14815.473633
8649.856917	0.085847	0.317570	14902.952148
8650.869261	1.131108	0.326964	574.603088
8650.870316	1.619213	0.326964	2282.872314
8650.871252	1.595032	0.326964	3775.822021
8650.872120	1.553544	0.326964	5124.297852
8650.873189	1.505116	0.326964	6733.266602
8650.874210	1.459808	0.326964	8223.730469
8650.875092	1.422678	0.326964	9478.533203
8650.876069	1.383160	0.326964	10829.880859
8650.877146	1.341544	0.326964	12274.723633
8650.878042	1.306366	0.326964	13445.227539
8650.878922	0.761737	0.326964	14115.556641
8650.879999	0.089678	0.326964	14212.139648
8650.880988	0.085616	0.326964	14296.814453
8650.881882	0.085598	0.326964	14373.338867
8650.882865	0.085686	0.326964	14457.568359
8650.883918	0.085591	0.326964	14547.695312
8650.884812	0.085584	0.326964	14624.207031
8650.885673	0.085646	0.326964	14697.948242
8650.886790	0.085605	0.326964	14793.569336
8650.887756	0.085543	0.326964	14876.204102
8650.888617	0.085616	0.326964	14949.919922
8651.913753	1.168619	0.315854	590.152771
8651.914653	1.617744	0.315854	2046.122559
8651.915517	1.603319	0.315854	3431.390137
8651.916610	1.554580	0.315854	5130.545898
8651.917583	1.509529	0.315854	6599.317383
8651.918446	1.470714	0.315854	7868.543945
8651.919466	1.427952	0.315854	9325.054687
8651.920525	1.385072	0.315854	10791.845703
8651.921404	1.349872	0.315854	11978.382812
8651.922287	1.314459	0.315854	13139.050781
8651.923410	0.784219	0.315854	14019.728516
8651.924357	0.093475	0.315854	14108.250000
8651.925214	0.085653	0.315854	14181.654297
8651.926235	0.085708	0.315854	14269.162109
8651.927269	0.085627	0.315854	14357.701172
8651.928158	0.085576	0.315854	14433.778320
8651.929083	0.085679	0.315854	14513.031250
8651.930151	0.085715	0.315854	14604.575195
8651.931087	0.085649	0.315854	14684.743164
8651.931953	0.085594	0.315854	14758.868164
8651.932997	0.085770	0.315854	14848.412109
8652.943806	1.087936	0.336104	464.548584
8652.944724	1.610980	0.336104	1943.428467
8652.945663	1.604381	0.336104	3449.942383
8652.946595	1.561718	0.336104	4905.462891
8652.947464	1.520449	0.336104	6226.733398
8652.948443	1.477632	0.336104	7673.334961
8652.949367	1.437103	0.336104	9001.218750
8652.950271	1.399501	0.336104	10266.367187
8652.951152	1.363993	0.336104	11468.044922
8652.952122	1.326899	0.336104	12755.137695
8652.953075	1.256067	0.336104	13952.169922
8652.953968	0.276145	0.336104	14198.767578
8652.954875	0.085939	0.336104	14276.713867
8652.955835	0.085664	0.336104	14358.951172
8652.956721	0.085657	0.336104	14434.842773
8652.957611	0.085613	0.336104	14511.038086
8652.958542	0.085715	0.336104	14590.838867
8652.959489	0.085719	0.336104	14672.014648
8652.960356	0.085598	0.336104	14746.228516
8652.961267	0.085664	0.336104	14824.268555
8652.962217	0.085642	0.336104	14905.628906
8653.991411	1.154418	0.338570	542.576294
8653.992331	1.616422	0.338570	2029.684692
8653.993216	1.604334	0.338570	3449.520020
8653.994132	1.562164	0.338570	4880.462402
8653.995083	1.518127	0.338570	6324.201660
8653.996013	1.476196	0.338570	7697.064453
8653.996879	1.438623	0.338570	8942.912109
8653.997851	1.399351	0.338570	10303.081055
8653.998805	1.362030	0.338570	11602.458008
8653.999702	1.326669	0.338570	12792.479492
8654.000579	1.267701	0.338570	13904.253906
8654.001525	0.264613	0.338570	14154.578125
8654.002452	0.085631	0.338570	14233.958008
8654.003332	0.085580	0.338570	14309.268555
8654.004314	0.085693	0.338570	14393.419922
8654.005255	0.085657	0.338570	14474.022461
8654.006141	0.085657	0.338570	14549.914062
8654.007032	0.085697	0.338570	14626.270508
8654.007972	0.085624	0.338570	14706.756836
8654.008925	0.085587	0.338570	14788.321289
8654.009803	0.085649	0.338570	14863.521484
8655.021545	1.146101	0.348447	531.790894
8655.022421	1.613613	0.348447	1945.316040
8655.023420	1.601858	0.348447	3545.572266
8655.024336	1.558264	0.348447	4972.942383
8655.025263	1.516011	0.348447	6378.284180
8655.026132	1.475094	0.348447	7660.140625
8655.027188	1.431790	0.348447	9172.110352
8655.028081	1.395073	0.348447	10417.911133
8655.028957	1.360851	0.348447	11610.016602
8655.029963	1.322589	0.348447	12940.541016
8655.030900	1.147559	0.348447	14015.803711
8655.031826	0.172797	0.348447	14175.813477
8655.032688	0.085653	0.348447	14249.646484
8655.033714	0.085605	0.348447	14337.477539
8655.034591	0.085547	0.348447	14412.501953
8655.035460	0.085536	0.348447	14486.833008
8655.036409	0.085591	0.348447	14568.058594
8655.037371	0.085602	0.348447	14650.407227
8655.038286	0.085624	0.348447	14728.752930
8655.039169	0.085620	0.348447	14804.355469
8655.040205	0.085653	0.348447	14893.091797
8656.068036	1.098127	0.341583	474.391083
8656.068898	1.609585	0.341583	1861.853271
8656.069999	1.600162	0.341583	3623.632080
8656.070894	1.557634	0.341583	5017.714844
8656.071763	1.517241	0.341583	6336.197266
8656.072754	1.472479	0.341583	7795.424316
8656.073749	1.429750	0.341583	9218.025391
8656.074650	1.393213	0.341583	10473.310547
8656.075520	1.357617	0.341583	11654.437500
8656.076620	1.317089	0.341583	13103.235352
8656.077540	1.053365	0.341583	14072.332031
8656.078417	0.141500	0.341583	14196.427734
8656.079411	0.085756	0.341583	14281.668945
8656.080409	0.085631	0.341583	14367.128906
8656.081290	0.085584	0.341583	14442.528320
8656.082150	0.085719	0.341583	14516.247070
8656.083229	0.085708	0.341583	14608.725586
8656.084139	0.085690	0.341583	14686.703125
8656.085010	0.085646	0.341583	14761.300781
8656.085994	0.085712	0.341583	14845.640625
8656.087005	0.085627	0.341583	14932.209961
8657.096224	1.176632	0.364242	597.729065
8657.097171	1.619022	0.364242	2130.943115
8657.098036	1.602114	0.364242	3516.771973
8657.099095	1.553544	0.364242	5161.974609
8657.100113	1.506416	0.364242	6695.506348
8657.101006	1.466396	0.364242	8004.998535
8657.101959	1.426564	0.364242	9364.513672
8657.103021	1.382948	0.364242	10833.204102
8657.103946	1.346719	0.364242	12078.918945
8657.104810	1.312917	0.364242	13213.279297
8657.105849	0.799113	0.364242	14043.557617
8657.106866	0.091487	0.364242	14136.599609
8657.107757	0.085627	0.364242	14212.893555
8657.108710	0.085701	0.364242	14294.566406
8657.109757	0.085701	0.364242	14384.294922
8657.110682	0.085668	0.364242	14463.537109
8657.111544	0.085616	0.364242	14537.338867
8657.112614	0.085693	0.364242	14629.031250
8657.113604	0.085565	0.364242	14713.741211
8657.114494	0.085562	0.364242	14789.890625
8657.115467	0.085646	0.364242	14873.223633
8658.145733	1.093660	0.368625	472.460968
8658.146620	1.611768	0.368625	1902.098755
8658.147536	1.606641	0.368625	3373.781494
8658.148494	1.562695	0.368625	4870.843750
8658.149426	1.519296	0.368625	6286.827148
8658.150292	1.479705	0.368625	7568.251465
8658.151247	1.438825	0.368625	8942.329102
8658.152188	1.399801	0.368625	10259.541992
8658.153096	1.363458	0.368625	11497.562500
8658.153980	1.328709	0.368625	12672.140625
8658.154951	1.257308	0.368625	13892.987305
8658.155900	0.268312	0.368625	14147.615234
8658.156795	0.085715	0.368625	14224.330078
8658.157710	0.085737	0.368625	14302.779297
8658.158646	0.085631	0.368625	14382.929687
8658.159582	0.085613	0.368625	14463.063477
8658.160469	0.085708	0.368625	14539.086914
8658.161404	0.085620	0.368625	14619.141602
8658.162355	0.085616	0.368625	14700.562500
8658.163277	0.085631	0.368625	14779.514648
8658.164138	0.085671	0.368625	14853.277344
8659.172799	1.088236	0.373250	462.500275
8659.173724	1.610306	0.373250	1952.033691
8659.174660	1.604366	0.373250	3453.720703
8659.175542	1.563230	0.373250	4832.489746
8659.176433	1.521932	0.373250	6188.531250
8659.177373	1.478804	0.373250	7578.606934
8659.178324	1.438498	0.373250	8946.619141
8659.179209	1.402028	0.373250	10187.414062
8659.180122	1.365154	0.373250	11433.799805
8659.181074	1.328397	0.373250	12698.433594
8659.182006	1.281127	0.373250	13892.443359
8659.182890	0.327480	0.373250	14181.936523
8659.183853	0.085968	0.373250	14264.723633
8659.184790	0.085660	0.373250	14344.987305
8659.185700	0.085646	0.373250	14422.924805
8659.186565	0.085609	0.373250	14496.976562
8659.187530	0.085671	0.373250	14579.649414
8659.188466	0.085675	0.373250	14659.840820
8659.189349	0.085609	0.373250	14735.433594
8659.190276	0.085616	0.373250	14814.799805
8659.191200	0.085653	0.373250	14893.943359
8660.223466	1.131013	0.371155	516.872986
8660.224341	1.612903	0.371155	1928.162842
8660.225211	1.607153	0.371155	3326.386230
8660.226261	1.559176	0.371155	4963.520996
8660.227173	1.515809	0.371155	6345.938965
8660.228105	1.474552	0.371155	7720.221680
8660.228973	1.435638	0.371155	8966.355469
8660.230028	1.393839	0.371155	10436.855469
8660.230925	1.358386	0.371155	11655.328125
8660.231849	1.323215	0.371155	12877.979492
8660.232716	1.191943	0.371155	13911.394531
8660.233714	0.195747	0.371155	14106.750000
8660.234644	0.085591	0.371155	14186.349609
8660.235505	0.085613	0.371155	14260.062500
8660.236532	0.085580	0.371155	14347.953125
8660.237404	0.085569	0.371155	14422.569336
8660.238317	0.085635	0.371155	14500.753906
8660.239195	0.085675	0.371155	14575.976562
8660.240179	0.085584	0.371155	14660.190430
8660.241098	0.085540	0.371155	14738.801758
8660.241978	0.085565	0.371155	14814.099609
8661.247439	1.107876	0.384037	487.465424
8661.248301	1.610255	0.384037	1875.505371
8661.249390	1.599690	0.384037	3617.567871
8661.250297	1.556763	0.384037	5029.551758
8661.251175	1.516318	0.384037	6360.879395
8661.252166	1.472117	0.384037	7819.747070
8661.253172	1.428805	0.384037	9257.125000
8661.254064	1.392224	0.384037	10498.989258
8661.254932	1.357072	0.384037	11676.927734
8661.256036	1.316001	0.384037	13129.792969
8661.256968	1.020505	0.384037	14080.904297
8661.257847	0.130023	0.384037	14195.194336
8661.258830	0.085554	0.384037	14279.293945
8661.259834	0.085642	0.384037	14365.278320
8661.260712	0.085602	0.384037	14440.436523
8661.261570	0.085638	0.384037	14513.914062
8661.262646	0.085679	0.384037	14606.104492
8661.263566	0.085638	0.384037	14684.891602
8661.264433	0.085660	0.384037	14759.159180
8661.265382	0.085715	0.384037	14840.502930
8661.266398	0.085668	0.384037	14927.541016
8662.302231	1.170729	0.399345	592.388794
8662.303196	1.619696	0.399345	2155.395508
8662.304076	1.600935	0.399345	3564.218262
8662.305100	1.553654	0.399345	5155.159668
8662.306141	1.506083	0.399345	6722.991699
8662.307024	1.465822	0.399345	8017.312012
8662.307910	1.427117	0.399345	9281.737305
8662.309013	1.383545	0.399345	10807.787109
8662.309964	1.346733	0.399345	12088.530273
8662.310829	1.313152	0.399345	13224.406250
8662.311867	0.807360	0.399345	14062.445312
8662.312913	0.091674	0.399345	14158.335937
8662.313782	0.085584	0.399345	14232.708008
8662.314714	0.085609	0.399345	14312.496094
8662.315772	0.085602	0.399345	14403.062500
8662.316721	0.085598	0.399345	14484.294922
8662.317588	0.085605	0.399345	14558.514648
8662.318621	0.085638	0.399345	14646.979492
8662.319643	0.085605	0.399345	14734.468750
8662.320533	0.085587	0.399345	14810.641602
8662.321482	0.085653	0.399345	14891.926758
8663.324148	1.134763	0.403478	548.090637
8663.325105	1.615950	0.403478	2094.554443
8663.326036	1.600649	0.403478	3584.759033
8663.326902	1.559703	0.403478	4935.461914
8663.327888	1.515751	0.403478	6429.992187
8663.328786	1.473061	0.403478	7752.801270
8663.329682	1.435521	0.403478	9039.028320
8663.330655	1.394549	0.403478	10395.924805
8663.331617	1.356973	0.403478	11701.332031
8663.332554	1.321622	0.403478	12939.692383
8663.333425	1.180573	0.403478	13967.970703
8663.334409	0.177744	0.403478	14142.871094
8663.335359	0.085470	0.403478	14224.067383
8663.336248	0.085613	0.403478	14300.176758
8663.337162	0.085576	0.403478	14378.393555
8663.338131	0.085558	0.403478	14461.298828
8663.339053	0.085580	0.403478	14540.203125
8663.339914	0.085638	0.403478	14613.937500
8663.340828	0.085613	0.403478	14692.187500
8663.341773	0.085565	0.403478	14773.046875
8663.342688	0.085492	0.403478	14851.272461
8664.378825	1.109751	0.406640	480.522125
8664.379695	1.610563	0.406640	1881.711670
8664.380679	1.603290	0.406640	3459.348633
8664.381612	1.560505	0.406640	4915.300293
8664.382496	1.519420	0.406640	6258.467773
8664.383402	1.478379	0.406640	7597.878906
8664.384370	1.437305	0.406640	8989.189453
8664.385297	1.399039	0.406640	10286.098633
8664.386162	1.364388	0.406640	11466.294922
8664.387117	1.328122	0.406640	12734.652344
8664.388028	1.262465	0.406640	13884.757812
8664.388957	0.278320	0.406640	14143.317383
8664.389832	0.085829	0.406640	14218.417969
8664.390809	0.085649	0.406640	14302.097656
8664.391766	0.085613	0.406640	14384.029297
8664.392652	0.085576	0.406640	14459.849609
8664.393562	0.085587	0.406640	14537.734375
8664.394522	0.085591	0.406640	14619.901367
8664.395444	0.085576	0.406640	14698.802734
8664.396317	0.085646	0.406640	14773.571289
8664.397245	0.085543	0.406640	14852.955078
8665.400798	1.147489	0.419003	526.697449
8665.401726	1.615865	0.419003	2026.220703
8665.402599	1.603850	0.419003	3426.381836
8665.403579	1.559432	0.419003	4954.625488
8665.404510	1.516696	0.419003	6366.668945
8665.405376	1.476782	0.419003	7645.562500
8665.406376	1.435448	0.419003	9081.010742
8665.407317	1.396523	0.419003	10395.138672
8665.408215	1.360781	0.419003	11617.120117
8665.409086	1.325966	0.419003	12772.036133
8665.410029	1.229509	0.419003	13931.462891
8665.410984	0.227856	0.419003	14149.065430
8665.411870	0.085591	0.419003	14224.898437
8665.412779	0.085675	0.419003	14302.777344
8665.413728	0.085613	0.419003	14384.023437
8665.414648	0.085682	0.419003	14462.851562
8665.415517	0.085638	0.419003	14537.271484
8665.416463	0.085594	0.419003	14618.244141
8665.417408	0.085690	0.419003	14699.220703
8665.418336	0.085620	0.419003	14778.675781
8665.419197	0.085547	0.419003	14852.332031
8666.455479	1.100024	0.415039	463.110291
8666.456453	1.614536	0.415039	2035.668457
8666.457356	1.602572	0.415039	3482.791016
8666.458251	1.561769	0.415039	4880.574219
8666.459212	1.517842	0.415039	6339.220215
8666.460144	1.475046	0.415039	7713.963379
8666.461065	1.435737	0.415039	9036.277344
8666.461943	1.399384	0.415039	10264.935547
8666.462924	1.361613	0.415039	11600.677734
8666.463848	1.325299	0.415039	12825.253906
8666.464711	1.279145	0.415039	13929.156250
8666.465786	0.206935	0.415039	14151.611328
8666.466676	0.085492	0.415039	14227.699219
8666.467597	0.085620	0.415039	14306.555664
8666.468457	0.085620	0.415039	14380.188477
8666.469424	0.085602	0.415039	14462.965820
8666.470353	0.085609	0.415039	14542.497070
8666.471271	0.085719	0.415039	14621.187500
8666.472146	0.085653	0.415039	14696.133789
8666.473116	0.085627	0.415039	14779.192383
8666.474037	0.085558	0.415039	14857.991211
8667.477433	1.081428	0.429831	455.281250
8667.478485	1.615137	0.429831	2154.405273
8667.479444	1.597002	0.429831	3685.930176
8667.480310	1.556396	0.429831	5033.769531
8667.481205	1.513770	0.429831	6388.593262
8667.482305	1.466213	0.429831	8001.427734
8667.483207	1.427772	0.429831	9289.278320
8667.484077	1.391927	0.429831	10500.254883
8667.485110	1.351765	0.429831	11896.627930
8667.486072	1.314470	0.429831	13161.148437
8667.486953	1.054977	0.429831	14090.583008
8667.487849	0.141812	0.429831	14217.646484
8667.488938	0.085660	0.429831	14310.930664
8667.489827	0.085594	0.429831	14387.024414
8667.490691	0.085609	0.429831	14460.990234
8667.491743	0.085693	0.429831	14551.139648
8667.492704	0.085631	0.429831	14633.430664
8667.493580	0.085638	0.429831	14708.450195
8667.494435	0.085701	0.429831	14781.724609
8667.495516	0.085686	0.429831	14874.351562
8667.496399	0.085675	0.429831	14950.002930
8668.533182	1.088273	0.424127	463.604156
8668.534131	1.609457	0.424127	1990.978638
8668.535189	1.597148	0.424127	3680.761719
8668.536134	1.553112	0.424127	5148.452148
8668.537016	1.512360	0.424127	6482.353516
8668.537971	1.470183	0.424127	7886.378418
8668.538995	1.426468	0.424127	9347.082031
8668.539876	1.390056	0.424127	10571.721680
8668.540739	1.355724	0.424127	11741.710937
8668.541790	1.315950	0.424127	13124.774414
8668.542738	1.009431	0.424127	14081.714844
8668.543606	0.129884	0.424127	14194.454102
8668.544545	0.085624	0.424127	14274.854492
8668.545595	0.085631	0.424127	14364.767578
8668.546492	0.085631	0.424127	14441.579102
8668.547359	0.085686	0.424127	14515.869141
8668.548377	0.085649	0.424127	14603.060547
8668.549328	0.085584	0.424127	14684.450195
8668.550206	0.085514	0.424127	14759.531250
8668.551115	0.085653	0.424127	14837.389648
8668.552183	0.085591	0.424127	14928.800781
8669.553089	1.089371	0.437260	464.072174
8669.554024	1.609058	0.437260	1968.541016
8669.555080	1.598086	0.437260	3656.119629
8669.556010	1.554631	0.437260	5101.926758
8669.556878	1.513975	0.437260	6416.056641
8669.557948	1.466642	0.437260	7985.363281
8669.558967	1.423520	0.437260	9435.930664
8669.559852	1.387379	0.437260	10663.761719
8669.560832	1.349689	0.437260	11986.457031
8669.561876	1.309673	0.437260	13353.755859
8669.562791	0.840967	0.437260	14123.240234
8669.563647	0.103217	0.437260	14211.593750
8669.564706	0.085730	0.437260	14302.381836
8669.565690	0.085620	0.437260	14386.631836
8669.566576	0.085638	0.437260	14462.507812
8669.567544	0.085697	0.437260	14545.462891
8669.568602	0.085649	0.437260	14636.080078
8669.569519	0.085591	0.437260	14714.566406
8669.570385	0.085646	0.437260	14788.735352
8669.571465	0.085778	0.437260	14881.375000
8669.572453	0.085594	0.437260	14965.942383
8670.608825	1.080886	0.438553	456.134003
8670.609740	1.609567	0.438553	1928.887573
8670.610697	1.603092	0.438553	3463.046631
8670.611624	1.560348	0.438553	4909.489258
8670.612508	1.518944	0.438553	6252.235840
8670.613485	1.475896	0.438553	7694.186523
8670.614397	1.435393	0.438553	9003.264648
8670.615333	1.397468	0.438553	10311.294922
8670.616199	1.362598	0.438553	11491.304687
8670.617165	1.326145	0.438553	12772.361328
8670.618119	1.239943	0.438553	13955.266602
8670.619002	0.253854	0.438553	14179.419922
8670.619910	0.085796	0.438553	14257.322266
8670.620863	0.085580	0.438553	14338.879883
8670.621786	0.085569	0.438553	14417.860352
8670.622666	0.085569	0.438553	14493.161133
8670.623580	0.085620	0.438553	14571.417969
8670.624534	0.085521	0.438553	14653.004883
8670.625426	0.085693	0.438553	14729.443359
8670.626506	0.085594	0.438553	14821.885742
8670.627453	0.085569	0.438553	14902.919922
8671.628750	1.102013	0.446951	490.395782
8671.629708	1.616125	0.446951	2038.643921
8671.630643	1.600935	0.446951	3535.518066
8671.631530	1.560040	0.446951	4919.273926
8671.632445	1.517574	0.446951	6307.854492
8671.633407	1.474069	0.446951	7725.908691
8671.634334	1.434833	0.446951	9055.999023
8671.635208	1.398299	0.446951	10278.113281
8671.636189	1.360715	0.446951	11612.974609
8671.637148	1.323875	0.446951	12882.570312
8671.638040	1.237826	0.446951	13986.710937
8671.638942	0.247650	0.446951	14210.091797
8671.639874	0.085594	0.446951	14289.866211
8671.640792	0.085624	0.446951	14368.468750
8671.641665	0.085697	0.446951	14443.282227
8671.642624	0.085631	0.446951	14525.402344
8671.643571	0.085675	0.446951	14606.536133
8671.644461	0.085638	0.446951	14682.753906
8671.645376	0.085726	0.446951	14761.193359
8671.646329	0.085587	0.446951	14842.757812
8671.647241	0.085646	0.446951	14920.867187
8672.685544	1.134664	0.456378	516.272278
8672.686423	1.612211	0.456378	1933.405518
8672.687288	1.606908	0.456378	3323.380859
8672.688363	1.558667	0.456378	4998.947754
8672.689249	1.515787	0.456378	6341.935547
8672.690161	1.474764	0.456378	7686.920898
8672.691039	1.436063	0.456378	8947.784180
8672.692077	1.394777	0.456378	10395.562500
8672.692972	1.359565	0.456378	11612.374023
8672.693852	1.325607	0.456378	12778.908203
8672.694836	1.195140	0.456378	13954.926758
8672.695791	0.188518	0.456378	14134.961914
8672.696708	0.085547	0.456378	14213.408203
8672.697570	0.085584	0.456378	14287.181641
8672.698618	0.085573	0.456378	14376.861328
8672.699493	0.085569	0.456378	14451.734375
8672.700415	0.085543	0.456378	14530.605469
8672.701272	0.085584	0.456378	14603.950195
8672.702235	0.085565	0.456378	14686.349609
8672.703160	0.085635	0.456378	14765.561523
8672.704034	0.085573	0.456378	14840.351562
8673.705435	1.119119	0.465711	501.365112
8673.706309	1.611698	0.465711	1909.989136
8673.707329	1.600997	0.465711	3543.006348
8673.708388	1.552848	0.465711	5187.472168
8673.709266	1.510847	0.465711	6513.996094
8673.710138	1.471765	0.465711	7797.375488
8673.711165	1.428197	0.465711	9264.133789
8673.712127	1.388683	0.465711	10600.046875
8673.713006	1.354358	0.465711	11790.527344
8673.713903	1.318865	0.465711	12973.548828
8673.715001	0.970496	0.465711	14039.153320
8673.715896	0.115774	0.465711	14142.770508
8673.716757	0.085602	0.465711	14216.473633
8673.717790	0.085682	0.465711	14304.983398
8673.718768	0.085507	0.465711	14388.608398
8673.719640	0.085562	0.465711	14463.217773
8673.720497	0.085543	0.465711	14536.528320
8673.721601	0.085671	0.465711	14631.109375
8673.722495	0.085507	0.465711	14707.552734
8673.723358	0.085562	0.465711	14781.392578
8673.724361	0.085605	0.465711	14867.254883
8674.762180	1.091935	0.466590	471.715820
8674.763046	1.609497	0.466590	1865.540283
8674.764113	1.599913	0.466590	3572.647705
8674.765128	1.552753	0.466590	5148.691895
8674.766027	1.511045	0.466590	6507.121094
8674.767013	1.467737	0.466590	7954.309570
8674.768056	1.423414	0.466590	9438.930664
8674.768966	1.385918	0.466590	10700.116211
8674.769829	1.351088	0.466590	11866.104492
8674.770919	1.310717	0.466590	13294.785156
8674.771921	0.776217	0.466590	14072.554687
8674.772789	0.097394	0.466590	14157.092773
8674.773796	0.085690	0.466590	14243.381836
8674.774829	0.085635	0.466590	14331.842773
8674.775725	0.085594	0.466590	14408.535156
8674.776581	0.085616	0.466590	14481.823242
8674.777687	0.085668	0.466590	14576.571289
8674.778642	0.085675	0.466590	14658.390625
8674.779503	0.085587	0.466590	14732.081055
8674.780565	0.085671	0.466590	14823.064453
8674.781607	0.085697	0.466590	14912.360352
8675.782085	1.096106	0.488605	477.902191
8675.782953	1.609673	0.488605	1875.098267
8675.784010	1.600027	0.488605	3566.326660
8675.785025	1.553108	0.488605	5142.731445
8675.785916	1.511766	0.488605	6489.715332
8675.786900	1.468246	0.488605	7934.469238
8675.787956	1.423491	0.488605	9437.675781
8675.788868	1.385881	0.488605	10701.599609
8675.789735	1.351051	0.488605	11872.960937
8675.790815	1.310826	0.488605	13288.653320
8675.791817	0.785519	0.488605	14075.743164
8675.792692	0.097694	0.488605	14161.225586
8675.793692	0.085660	0.488605	14246.885742
8675.794748	0.085664	0.488605	14337.346680
8675.795623	0.085594	0.488605	14412.242187
8675.796492	0.085657	0.488605	14486.677734
8675.797584	0.085679	0.488605	14580.239258
8675.798543	0.085551	0.488605	14662.282227
8675.799412	0.085657	0.488605	14736.717773
8675.800473	0.085668	0.488605	14827.611328
8675.801510	0.085616	0.488605	14916.395508
8676.838865	1.118668	0.479919	487.739349
8676.839736	1.610453	0.479919	1890.443848
8676.840843	1.597009	0.479919	3658.333008
8676.841824	1.551973	0.479919	5180.818359
8676.842694	1.511521	0.479919	6495.841797
8676.843714	1.465726	0.479919	7990.882812
8676.844762	1.421726	0.479919	9480.851562
8676.845655	1.385237	0.479919	10717.868164
8676.846595	1.348770	0.479919	11985.711914
8676.847661	1.307780	0.479919	13379.804687
8676.848603	0.770951	0.479919	14106.040039
8676.849473	0.096555	0.479919	14190.042969
8676.850530	0.085756	0.479919	14280.686523
8676.851541	0.085609	0.479919	14367.237305
8676.852428	0.085660	0.479919	14443.217773
8676.853384	0.085690	0.479919	14525.136719
8676.854426	0.085690	0.479919	14614.425781
8676.855351	0.085664	0.479919	14693.665039
8676.856208	0.085726	0.479919	14767.132812
8676.857254	0.085686	0.479919	14856.760742
8676.858266	0.085573	0.479919	14943.360352
8677.858791	1.112644	0.498816	524.055359
8677.859720	1.615294	0.498816	2024.663574
8677.860669	1.600433	0.498816	3543.474854
8677.861566	1.558883	0.498816	4941.792969
8677.862480	1.516392	0.498816	6327.774902
8677.863445	1.473263	0.498816	7749.473633
8677.864369	1.433954	0.498816	9074.447266
8677.865239	1.397523	0.498816	10290.292969
8677.866203	1.360730	0.498816	11602.037109
8677.867145	1.324142	0.498816	12849.378906
8677.868046	1.242517	0.498816	13968.886719
8677.868916	0.254293	0.498816	14190.122070
8677.869864	0.085605	0.498816	14271.276367
8677.870812	0.085620	0.498816	14352.444336
8677.871700	0.085598	0.498816	14428.455078
8677.872608	0.085547	0.498816	14506.131836
8677.873562	0.085518	0.498816	14587.715820
8677.874452	0.085602	0.498816	14663.901367
8677.875323	0.085602	0.498816	14738.460937
8677.876278	0.085587	0.498816	14820.196289
8677.877223	0.085671	0.498816	14901.155273
8678.914493	1.089873	0.498949	459.926392
8678.915471	1.613892	0.498949	2038.312378
8678.916407	1.601462	0.498949	3537.281250
8678.917285	1.560538	0.498949	4907.434082
8678.918216	1.518406	0.498949	6321.069824
8678.919145	1.475471	0.498949	7691.782227
8678.920065	1.435375	0.498949	9012.327148
8678.920960	1.398882	0.498949	10264.326172
8678.921877	1.362601	0.498949	11513.832031
8678.922831	1.325885	0.498949	12778.726562
8678.923754	1.264504	0.498949	13945.864258
8678.924630	0.284619	0.498949	14195.190430
8678.925606	0.085759	0.498949	14278.891602
8678.926516	0.085613	0.498949	14356.798828
8678.927447	0.085598	0.498949	14436.490234
8678.928307	0.085587	0.498949	14510.094727
8678.929278	0.085620	0.498949	14593.231445
8678.930219	0.085576	0.498949	14673.758789
8678.931098	0.085668	0.498949	14749.060547
8678.932006	0.085631	0.498949	14826.813477
8678.932939	0.085649	0.498949	14906.724609
8679.935435	1.097227	0.507312	476.196350
8679.936309	1.609933	0.507312	1883.277588
8679.937267	1.604385	0.507312	3420.278320
8679.938239	1.559590	0.507312	4936.199707
8679.939162	1.516996	0.507312	6336.386719
8679.940030	1.477112	0.507312	7618.519531
8679.941081	1.433412	0.507312	9125.035156
8679.941954	1.396274	0.507312	10343.982422
8679.942833	1.361704	0.507312	11540.919922
8679.943721	1.326072	0.507312	12718.471680
8679.944779	1.191614	0.507312	13979.199219
8679.945681	0.199468	0.507312	14159.119141
8679.946558	0.085514	0.507312	14234.115234
8679.947545	0.085664	0.507312	14318.666016
8679.948465	0.085624	0.507312	14397.439453
8679.949387	0.085587	0.507312	14476.350586
8679.950248	0.085642	0.507312	14550.088867
8679.951293	0.085631	0.507312	14639.573242
8679.952172	0.085569	0.507312	14714.788086
8679.953035	0.085569	0.507312	14788.633789
8679.954007	0.085642	0.507312	14871.877930
8680.991197	1.134862	0.519296	516.362244
8680.992085	1.612972	0.519296	1948.681885
8680.992954	1.604714	0.519296	3343.178711
8680.994052	1.555825	0.519296	5051.474609
8680.994984	1.512261	0.519296	6460.901367
8680.995867	1.472831	0.519296	7761.411133
8680.996844	1.431661	0.519296	9160.144531
8680.997863	1.389525	0.519296	10576.070312
8680.998761	1.354384	0.519296	11792.306641
8680.999629	1.319938	0.519296	12938.012695
8681.000727	0.976699	0.519296	14010.428711
8681.001634	0.119473	0.519296	14118.790039
8681.002500	0.085532	0.519296	14192.861328
8681.003497	0.085682	0.519296	14278.287109
8681.004511	0.085580	0.519296	14365.065430
8681.005392	0.085580	0.519296	14440.460937
8681.006247	0.085635	0.519296	14513.678711
8681.007287	0.085671	0.519296	14602.777344
8681.008223	0.085620	0.519296	14682.917969
8681.009097	0.085598	0.519296	14757.730469
8681.010059	0.085719	0.519296	14840.192383
8682.012144	1.128193	0.519099	539.276428
8682.013078	1.615895	0.519099	2048.522217
8682.014003	1.601038	0.519099	3529.481934
8682.014890	1.559857	0.519099	4913.075195
8682.015826	1.516754	0.519099	6332.756836
8682.016890	1.468788	0.519099	7895.546875
8682.017884	1.426329	0.519099	9313.318359
8682.018784	1.389686	0.519099	10564.036133
8682.019783	1.351073	0.519099	11913.757812
8682.020826	1.311544	0.519099	13281.698242
8682.021723	0.928909	0.519099	14114.929687
8682.022606	0.113507	0.519099	14215.156250
8682.023684	0.085576	0.519099	14307.407227
8682.024640	0.085532	0.519099	14389.175781
8682.025498	0.085624	0.519099	14462.640625
8682.026555	0.085792	0.519099	14553.323242
8682.027591	0.085646	0.519099	14642.051758
8682.028472	0.085598	0.519099	14717.463867
8682.029394	0.085660	0.519099	14796.442383
8682.030464	0.085701	0.519099	14888.142578
8682.031391	0.085664	0.519099	14967.552734
8683.066840	1.114255	0.535498	493.615143
8683.067705	1.610372	0.535498	1886.587158
8683.068688	1.603187	0.535498	3462.520020
8683.069616	1.560351	0.535498	4910.526367
8683.070488	1.519215	0.535498	6235.282227
8683.071391	1.478306	0.535498	7570.192383
8683.072329	1.437341	0.535498	8918.418945
8683.073276	1.398710	0.535498	10242.997070
8683.074177	1.363502	0.535498	11471.512695
8683.075090	1.328038	0.535498	12684.011719
8683.076050	1.264449	0.535498	13897.882812
8683.076984	0.268081	0.535498	14148.270508
8683.077852	0.085803	0.535498	14222.748047
8683.078817	0.085598	0.535498	14305.350586
8683.079769	0.085591	0.535498	14386.833008
8683.080653	0.085620	0.535498	14462.521484
8683.081535	0.085682	0.535498	14538.093750
8683.082479	0.085653	0.535498	14618.950195
8683.083423	0.085671	0.535498	14699.824219
8683.084307	0.085649	0.535498	14775.538086
8683.085218	0.085587	0.535498	14853.507812
8684.090902	1.188281	0.554794	602.458557
8684.091804	1.616019	0.554794	2060.107910
8684.092730	1.600994	0.554794	3542.627930
8684.093600	1.559264	0.554794	4899.187500
8684.094588	1.514861	0.554794	6395.870117
8684.095512	1.473387	0.554794	7757.280273
8684.096383	1.435723	0.554794	9007.794922
8684.097320	1.398062	0.554794	10317.778320
8684.098254	1.360433	0.554794	11588.422852
8684.099184	1.324211	0.554794	12819.939453
8684.100074	1.266116	0.554794	13946.782227
8684.100988	0.262203	0.554794	14186.436523
8684.101944	0.085627	0.554794	14268.295898
8684.102865	0.085657	0.554794	14347.185547
8684.103724	0.085598	0.554794	14420.713867
8684.104693	0.085719	0.554794	14503.775391
8684.105637	0.085609	0.554794	14584.590820
8684.106520	0.085682	0.554794	14660.248047
8684.107400	0.085616	0.554794	14735.590820
8684.108369	0.085646	0.554794	14818.582031
8684.109294	0.085712	0.554794	14897.865234
8685.141445	1.090587	0.541923	467.861877
8685.142313	1.609402	0.541923	1864.822754
8685.143363	1.600397	0.541923	3545.239258
8685.144324	1.555876	0.541923	5040.436523
8685.145254	1.513004	0.541923	6447.530273
8685.146124	1.473541	0.541923	7729.511230
8685.147200	1.428699	0.541923	9266.791016
8685.148114	1.390931	0.541923	10538.102539
8685.149001	1.355779	0.541923	11740.678711
8685.149889	1.320428	0.541923	12913.218750
8685.150929	1.067882	0.541923	14023.816406
8685.151822	0.144646	0.541923	14152.985352
8685.152685	0.085525	0.541923	14226.792969
8685.153679	0.085638	0.541923	14311.917969
8685.154602	0.085580	0.541923	14390.908203
8685.155520	0.085602	0.541923	14469.490234
8685.156385	0.085547	0.541923	14543.488281
8685.157399	0.085602	0.541923	14630.288086
8685.158285	0.085613	0.541923	14706.140625
8685.159159	0.085573	0.541923	14780.930664
8685.160138	0.085649	0.541923	14864.781250
8686.167502	1.105100	0.557823	489.559357
8686.168373	1.610175	0.557823	1892.021362
8686.169385	1.601067	0.557823	3512.301270
8686.170438	1.553086	0.557823	5147.700684
8686.171332	1.510917	0.557823	6498.459961
8686.172231	1.469648	0.557823	7819.673828
8686.173318	1.424517	0.557823	9368.123047
8686.174272	1.385812	0.557823	10690.187500
8686.175139	1.351893	0.557823	11862.279297
8686.176181	1.312196	0.557823	13229.587891
8686.177224	0.790232	0.557823	14053.799805
8686.178102	0.097698	0.557823	14139.578125
8686.179060	0.085573	0.557823	14221.556641
8686.180104	0.085686	0.557823	14311.012695
8686.181033	0.085616	0.557823	14390.550781
8686.181888	0.085708	0.557823	14463.831055
8686.182919	0.085620	0.557823	14552.105469
8686.183936	0.085536	0.557823	14639.095703
8686.184823	0.085547	0.557823	14714.975586
8686.185788	0.085624	0.557823	14797.602539
8686.186827	0.085646	0.557823	14886.588867
8687.217089	1.088837	0.559978	466.022095
8687.218010	1.609548	0.559978	1948.416138
8687.218942	1.602664	0.559978	3442.098633
8687.219871	1.560256	0.559978	4891.576660
8687.220756	1.518878	0.559978	6235.784180
8687.221722	1.476321	0.559978	7661.910156
8687.222648	1.435290	0.559978	8990.989258
8687.223581	1.397384	0.559978	10294.748047
8687.224450	1.362396	0.559978	11478.669922
8687.225426	1.325566	0.559978	12772.422852
8687.226377	1.242059	0.559978	13953.621094
8687.227271	0.254194	0.559978	14180.871094
8687.228209	0.085723	0.559978	14261.279297
8687.229125	0.085543	0.559978	14339.636719
8687.230052	0.085594	0.559978	14418.982422
8687.230945	0.085631	0.559978	14495.451172
8687.231852	0.085554	0.559978	14573.048828
8687.232811	0.085551	0.559978	14655.091797
8687.233725	0.085573	0.559978	14733.304687
8687.234586	0.085580	0.559978	14806.989258
8687.235544	0.085551	0.559978	14888.946289
8688.245211	1.111033	0.585046	497.742676
8688.246081	1.611046	0.585046	1899.352905
8688.246996	1.605070	0.585046	3367.991455
8688.247944	1.561688	0.585046	4848.471680
8688.248880	1.518362	0.585046	6269.658203
8688.249764	1.477877	0.585046	7576.101562
8688.250703	1.436884	0.585046	8925.334961
8688.251670	1.397318	0.585046	10276.541992
8688.252603	1.361213	0.585046	11546.553711
8688.253472	1.326768	0.585046	12699.514648
8688.254439	1.250083	0.585046	13908.344727
8688.255386	0.257622	0.585046	14152.312500
8688.256267	0.085565	0.585046	14227.695312
8688.257150	0.085580	0.585046	14303.262695
8688.258097	0.085609	0.585046	14384.334961
8688.259041	0.085602	0.585046	14465.142578
8688.259931	0.085591	0.585046	14541.318359
8688.260841	0.085609	0.585046	14619.222656
8688.261801	0.085485	0.585046	14701.288086
8688.262729	0.085536	0.585046	14780.665039
8688.263592	0.085529	0.585046	14854.476562
8689.293802	1.143259	0.577868	523.612732
8689.294692	1.612797	0.577868	1959.001709
8689.295566	1.605231	0.577868	3361.973389
8689.296590	1.559381	0.577868	4958.779297
8689.297502	1.515729	0.577868	6341.124023
8689.298411	1.474559	0.577868	7681.498535
8689.299292	1.436016	0.577868	8946.627930
8689.300330	1.394301	0.577868	10393.912109
8689.301224	1.359199	0.577868	11609.036133
8689.302108	1.325240	0.577868	12780.548828
8689.303078	1.195598	0.577868	13940.279297
8689.304038	0.193114	0.577868	14125.668945
8689.304954	0.085569	0.577868	14204.049805
8689.305817	0.085631	0.577868	14277.949219
8689.306848	0.085584	0.577868	14366.185547
8689.307732	0.085594	0.577868	14441.850586
8689.308602	0.085543	0.577868	14516.273437
8689.309521	0.085664	0.577868	14594.999023
8689.310517	0.085616	0.577868	14680.273437
8689.311457	0.085507	0.577868	14760.649414
8689.312328	0.085521	0.577868	14835.138672
8690.322977	1.179456	0.599371	609.778503
8690.323912	1.617653	0.599371	2122.283691
8690.324776	1.600800	0.599371	3505.374512
8690.325848	1.552013	0.599371	5169.132324
8690.326864	1.504915	0.599371	6698.125488
8690.327754	1.465155	0.599371	8002.113281
8690.328729	1.424454	0.599371	9390.956055
8690.329773	1.381619	0.599371	10833.366211
8690.330697	1.345748	0.599371	12076.837891
8690.331559	1.311526	0.599371	13207.373047
8690.332635	0.765073	0.599371	14030.591797
8690.333625	0.090542	0.599371	14120.228516
8690.334510	0.085598	0.599371	14195.982422
8690.335487	0.085620	0.599371	14279.632812
8690.336533	0.085613	0.599371	14369.183594
8690.337440	0.085591	0.599371	14446.814453
8690.338302	0.085704	0.599371	14520.691406
8690.339386	0.085686	0.599371	14613.575195
8690.340375	0.085569	0.599371	14698.203125
8690.341261	0.085627	0.599371	14774.069336
8690.342239	0.085752	0.599371	14857.934570
8691.369494	1.173457	0.604733	597.289612
8691.370434	1.617697	0.604733	2117.924316
8691.371307	1.600935	0.604733	3515.540527
8691.372361	1.552310	0.604733	5151.674805
8691.373385	1.505079	0.604733	6692.875977
8691.374283	1.464778	0.604733	8008.246582
8691.375234	1.425417	0.604733	9363.818359
8691.376291	1.382029	0.604733	10824.623047
8691.377232	1.345243	0.604733	12090.496094
8691.378099	1.311497	0.604733	13227.563477
8691.379166	0.757767	0.604733	14036.101562
8691.380167	0.090216	0.604733	14126.408203
8691.381049	0.085565	0.604733	14201.876953
8691.382033	0.085781	0.604733	14286.286133
8691.383079	0.085664	0.604733	14375.890625
8691.383979	0.085598	0.604733	14452.928711
8691.384835	0.085554	0.604733	14526.163086
8691.385919	0.085701	0.604733	14619.062500
8691.386913	0.085536	0.604733	14704.084961
8691.387785	0.085605	0.604733	14778.733398
8691.388761	0.085686	0.604733	14862.363281
8692.399554	1.094927	0.622216	466.438782
8692.400417	1.608322	0.622216	1854.420166
8692.401396	1.602839	0.622216	3423.599854
8692.402356	1.559092	0.622216	4920.328125
8692.403253	1.517527	0.622216	6281.549805
8692.404172	1.476075	0.622216	7638.062988
8692.405147	1.434895	0.622216	9037.085937
8692.406038	1.397765	0.622216	10282.494141
8692.406948	1.362543	0.622216	11522.408203
8692.407897	1.325794	0.622216	12780.585937
8692.408833	1.252496	0.622216	13952.922852
8692.409701	0.270978	0.622216	14188.131836
8692.410617	0.085770	0.622216	14266.697266
8692.411588	0.085646	0.622216	14349.859375
8692.412518	0.085627	0.622216	14429.493164
8692.413392	0.085587	0.622216	14504.295898
8692.414359	0.085638	0.622216	14587.108398
8692.415306	0.085594	0.622216	14668.166016
8692.416196	0.085668	0.622216	14744.410156
8692.417076	0.085616	0.622216	14819.752930
8692.418033	0.085609	0.622216	14901.680664
8693.445066	1.103372	0.613873	481.070038
8693.445927	1.608768	0.613873	1866.219482
8693.446925	1.602195	0.613873	3465.209961
8693.447856	1.559718	0.613873	4917.307617
8693.448721	1.518691	0.613873	6230.975586
8693.449737	1.473336	0.613873	7727.885254
8693.450639	1.434320	0.613873	9021.641602
8693.451547	1.397157	0.613873	10290.259766
8693.452432	1.362228	0.613873	11495.831055
8693.453395	1.324438	0.613873	12771.265625
8693.454343	1.241777	0.613873	13948.470703
8693.455240	0.244508	0.613873	14167.794922
8693.456229	0.085844	0.613873	14252.694336
8693.457132	0.085499	0.613873	14329.900391
8693.458049	0.085573	0.613873	14408.370117
8693.458927	0.085598	0.613873	14483.525391
8693.459878	0.085605	0.613873	14564.936523
8693.460794	0.085554	0.613873	14643.303711
8693.461712	0.085554	0.613873	14721.842773
8693.462592	0.085540	0.613873	14797.117187
8693.463547	0.085594	0.613873	14878.860352
8694.477254	1.091451	0.635775	470.415558
8694.478118	1.608545	0.635775	1860.198364
8694.479175	1.599800	0.635775	3551.186768
8694.480114	1.556287	0.635775	5012.540039
8694.480992	1.515542	0.635775	6343.185547
8694.481912	1.473406	0.635775	7698.718750
8694.482989	1.428900	0.635775	9237.644531
8694.483870	1.391814	0.635775	10463.833008
8694.484741	1.357895	0.635775	11646.559570
8694.485749	1.318821	0.635775	12975.930664
8694.486721	1.090060	0.635775	14035.468750
8694.487641	0.143800	0.635775	14167.764648
8694.488518	0.085503	0.635775	14242.750977
8694.489551	0.085627	0.635775	14331.204102
8694.490457	0.085562	0.635775	14408.722656
8694.491331	0.085642	0.635775	14483.574219
8694.492188	0.085569	0.635775	14556.906250
8694.493238	0.085635	0.635775	14646.822266
8694.494122	0.085543	0.635775	14722.442383
8694.494989	0.085646	0.635775	14796.697266
8694.495964	0.085638	0.635775	14880.194336
8695.520693	1.078916	0.635433	452.065826
8695.521686	1.610760	0.635433	2051.551025
8695.522737	1.595237	0.635433	3728.145020
8695.523646	1.552262	0.635433	5139.151367
8695.524513	1.510236	0.635433	6448.525391
8695.525627	1.462654	0.635433	8077.921875
8695.526590	1.422195	0.635433	9447.495117
8695.527465	1.386270	0.635433	10660.480469
8695.528531	1.345086	0.635433	12094.341797
8695.529562	1.305835	0.635433	13440.657227
8695.530452	0.774972	0.635433	14130.381836
8695.531375	0.097295	0.635433	14220.184570
8695.532432	0.085657	0.635433	14310.723633
8695.533368	0.085594	0.635433	14390.839844
8695.534231	0.085573	0.635433	14464.688477
8695.535278	0.085763	0.635433	14554.482422
8695.536304	0.085664	0.635433	14642.374023
8695.537181	0.085609	0.635433	14717.453125
8695.538043	0.085638	0.635433	14791.273437
8695.539071	0.085701	0.635433	14879.374023
8695.540019	0.085532	0.635433	14960.458984
8696.553911	1.085449	0.659760	455.888672
8696.554988	1.616162	0.659760	2196.495117
8696.556047	1.591172	0.659760	3881.546143
8696.556942	1.548622	0.659760	5267.562500
8696.557841	1.506105	0.659760	6621.550781
8696.558941	1.458237	0.659760	8225.611328
8696.559906	1.417969	0.659760	9593.951172
8696.560776	1.382260	0.659760	10796.517578
8696.561830	1.341442	0.659760	12210.397461
8696.562851	1.302909	0.659760	13540.667969
8696.563755	0.662058	0.659760	14139.168945
8696.564705	0.091761	0.659760	14226.342773
8696.565753	0.085642	0.659760	14316.095703
8696.566677	0.085635	0.659760	14395.222656
8696.567535	0.085584	0.659760	14468.653320
8696.568597	0.085745	0.659760	14559.713867
8696.569613	0.085620	0.659760	14646.704102
8696.570489	0.085646	0.659760	14721.729492
8696.571468	0.085704	0.659760	14805.633789
8696.572504	0.085624	0.659760	14894.339844
8696.573406	0.085565	0.659760	14971.519531
8697.598417	1.110106	0.651143	489.556793
8697.599291	1.610215	0.651143	1896.884521
8697.600247	1.603315	0.651143	3429.654053
8697.601178	1.560311	0.651143	4882.303711
8697.602065	1.518827	0.651143	6229.502930
8697.602949	1.478544	0.651143	7536.535645
8697.603903	1.437503	0.651143	8907.913086
8697.604852	1.399105	0.651143	10235.664062
8697.605740	1.363806	0.651143	11446.723633
8697.606670	1.328251	0.651143	12681.997070
8697.607627	1.268991	0.651143	13896.420898
8697.608538	0.288347	0.651143	14159.105469
8697.609413	0.085818	0.651143	14234.196289
8697.610331	0.085565	0.651143	14312.745117
8697.611266	0.085584	0.651143	14392.765625
8697.612187	0.085627	0.651143	14471.628906
8697.613049	0.085551	0.651143	14545.373047
8697.614018	0.085609	0.651143	14628.328125
8697.614964	0.085605	0.651143	14709.310547
8697.615853	0.085631	0.651143	14785.436523
8697.616766	0.085613	0.651143	14863.600586
8698.631609	1.084556	0.679631	459.851593
8698.632585	1.610402	0.679631	2031.603516
8698.633497	1.601217	0.679631	3491.913574
8698.634414	1.559176	0.679631	4921.677734
8698.635293	1.517897	0.679631	6255.909180
8698.636243	1.474347	0.679631	7656.538574
8698.637206	1.433917	0.679631	9037.400391
8698.638103	1.397051	0.679631	10290.554687
8698.639100	1.359188	0.679631	11645.665039
8698.640002	1.322611	0.679631	12838.660156
8698.640923	1.228154	0.679631	13969.790039
8698.641804	0.240674	0.679631	14181.823242
8698.642761	0.085697	0.679631	14263.834961
8698.643680	0.085569	0.679631	14342.472656
8698.644566	0.085631	0.679631	14418.341797
8698.645521	0.085554	0.679631	14500.045898
8698.646456	0.085642	0.679631	14580.121094
8698.647375	0.085631	0.679631	14658.816406
8698.648250	0.085624	0.679631	14733.737305
8698.649201	0.085558	0.679631	14815.102539
8698.650129	0.085624	0.679631	14894.561523
8699.675221	1.238807	0.679627	706.120178
8699.676199	1.619784	0.679627	2290.269043
8699.677078	1.596394	0.679627	3693.499512
8699.677972	1.553467	0.679627	5082.298828
8699.679059	1.505277	0.679627	6718.535156
8699.679950	1.465052	0.679627	8023.896973
8699.680809	1.427915	0.679627	9250.475586
8699.681828	1.386255	0.679627	10663.069336
8699.682797	1.348231	0.679627	11969.505859
8699.683717	1.313434	0.679627	13177.865234
8699.684590	0.983178	0.679627	14036.179687
8699.685701	0.101979	0.679627	14149.478516
8699.686600	0.085598	0.679627	14226.431641
8699.687466	0.085576	0.679627	14300.541016
8699.688537	0.085668	0.679627	14392.291016
8699.689498	0.085631	0.679627	14474.582031
8699.690376	0.085664	0.679627	14549.794922
8699.691247	0.085631	0.679627	14624.379883
8699.692341	0.085627	0.679627	14718.056641
8699.693228	0.085591	0.679627	14793.975586
8699.694097	0.085657	0.679627	14868.411133
8700.707264	1.104144	0.690798	471.469635
8700.708355	1.616953	0.690798	2235.565430
8700.709340	1.592728	0.690798	3804.402832
8700.710237	1.551006	0.690798	5195.655273
8700.711242	1.505061	0.690798	6708.241699
8700.712300	1.458655	0.690798	8251.498047
8700.713183	1.420840	0.690798	9506.099609
8700.714064	1.383640	0.690798	10725.086914
8700.715157	1.342723	0.690798	12192.683594
8700.716104	1.306461	0.690798	13429.902344
8700.716972	0.829405	0.690798	14149.826172
8700.717972	0.094596	0.690798	14244.421875
8700.719037	0.085697	0.690798	14335.689453
8700.719906	0.085690	0.690798	14410.153320
8700.720826	0.085598	0.690798	14488.903320
8700.721884	0.085726	0.690798	14579.601562
8700.722830	0.085609	0.690798	14660.587891
8700.723695	0.085646	0.690798	14734.671875
8700.724731	0.085741	0.690798	14823.500000
8700.725755	0.085616	0.690798	14911.170898
8700.726650	0.085642	0.690798	14987.820312
8701.750748	1.128007	0.680594	516.627014
8701.751635	1.612203	0.680594	1946.651367
8701.752504	1.604550	0.680594	3341.004883
8701.753481	1.560655	0.680594	4865.765137
8701.754449	1.516128	0.680594	6333.376953
8701.755343	1.475398	0.680594	7652.382812
8701.756269	1.436433	0.680594	8982.519531
8701.757229	1.397208	0.680594	10323.839844
8701.758153	1.360309	0.680594	11580.765625
8701.759027	1.326182	0.680594	12739.848633
8701.759949	1.243290	0.680594	13886.162109
8701.760922	0.230819	0.680594	14110.749023
8701.761847	0.085653	0.680594	14189.978516
8701.762710	0.085598	0.680594	14263.849609
8701.763681	0.085616	0.680594	14346.983398
8701.764636	0.085624	0.680594	14428.753906
8701.765525	0.085587	0.680594	14504.840820
8701.766440	0.085598	0.680594	14583.163086
8701.767380	0.085759	0.680594	14663.776367
8701.768305	0.085598	0.680594	14742.955078
8701.769178	0.085540	0.680594	14817.630859
8702.784953	1.089221	0.718895	458.562134
8702.785912	1.613624	0.718895	2006.027832
8702.786841	1.601569	0.718895	3493.885010
8702.787727	1.560341	0.718895	4876.346680
8702.788626	1.518065	0.718895	6241.087402
8702.789605	1.474219	0.718895	7684.347656
8702.790543	1.434554	0.718895	9029.959961
8702.791438	1.397659	0.718895	10280.864258
8702.792372	1.361049	0.718895	11552.083984
8702.793325	1.324270	0.718895	12814.113281
8702.794230	1.249852	0.718895	13945.229492
8702.795111	0.267953	0.718895	14181.295898
8702.796042	0.085653	0.718895	14261.039062
8702.796983	0.085565	0.718895	14341.555664
8702.797909	0.085591	0.718895	14420.812500
8702.798767	0.085616	0.718895	14494.271484
8702.799734	0.085569	0.718895	14577.016602
8702.800689	0.085598	0.718895	14658.762695
8702.801578	0.085638	0.718895	14734.895508
8702.802493	0.085591	0.718895	14813.210937
8702.803433	0.085642	0.718895	14893.714844
8703.828563	1.223540	0.717800	696.194214
8703.829454	1.617455	0.717800	2137.346680
8703.830366	1.598225	0.717800	3594.927979
8703.831250	1.555602	0.717800	4970.080078
8703.832279	1.509382	0.717800	6523.234375
8703.833175	1.469191	0.717800	7839.629395
8703.834055	1.432042	0.717800	9099.826172
8703.835046	1.392012	0.717800	10479.309570
8703.835994	1.354087	0.717800	11762.984375
8703.836925	1.318594	0.717800	12990.594727
8703.837791	1.147086	0.717800	13983.971680
8703.838832	0.141332	0.717800	14131.097656
8703.839711	0.085543	0.717800	14206.290039
8703.840583	0.085719	0.717800	14281.037109
8703.841534	0.085657	0.717800	14362.497070
8703.842492	0.085565	0.717800	14444.468750
8703.843407	0.085605	0.717800	14522.797852
8703.844283	0.085613	0.717800	14597.794922
8703.845313	0.085602	0.717800	14685.964844
8703.846210	0.085565	0.717800	14762.716797
8703.847082	0.085675	0.717800	14837.425781
8704.861704	1.158032	0.732237	579.016113
8704.862606	1.615129	0.732237	2035.862793
8704.863469	1.602059	0.732237	3418.439941
8704.864530	1.553595	0.732237	5066.804199
8704.865536	1.506987	0.732237	6582.833496
8704.866430	1.467437	0.732237	7894.721680
8704.867412	1.426410	0.732237	9295.456055
8704.868463	1.383647	0.732237	10749.669922
8704.869367	1.348074	0.732237	11968.328125
8704.870234	1.313046	0.732237	13106.738281
8704.871357	0.786226	0.732237	13989.669922
8704.872328	0.092351	0.732237	14079.342773
8704.873196	0.085646	0.732237	14153.683594
8704.874266	0.085704	0.732237	14245.387695
8704.875303	0.085682	0.732237	14334.240234
8704.876194	0.085536	0.732237	14410.453125
8704.877122	0.085638	0.732237	14489.925781
8704.878164	0.085638	0.732237	14579.161133
8704.879102	0.085547	0.732237	14659.404297
8704.879962	0.085693	0.732237	14733.100586
8704.881019	0.085708	0.732237	14823.694336
8705.905091	1.089998	0.735319	467.608948
8705.906009	1.608131	0.735319	1943.873291
8705.906965	1.601660	0.735319	3475.060547
8705.907903	1.558444	0.735319	4936.880859
8705.908779	1.517303	0.735319	6266.038574
8705.909699	1.475500	0.735319	7623.499023
8705.910654	1.435045	0.735319	8993.966797
8705.911582	1.396948	0.735319	10290.334961
8705.912469	1.361869	0.735319	11498.312500
8705.913438	1.325013	0.735319	12782.250000
8705.914387	1.240591	0.735319	13959.570312
8705.915279	0.241490	0.735319	14174.979492
8705.916167	0.085715	0.735319	14251.094727
8705.917110	0.085635	0.735319	14331.848633
8705.918056	0.085682	0.735319	14412.904297
8705.918926	0.085704	0.735319	14487.466797
8705.919838	0.085715	0.735319	14565.639648
8705.920785	0.085620	0.735319	14646.721680
8705.921706	0.085649	0.735319	14725.604492
8705.922582	0.085745	0.735319	14800.716797
8705.923514	0.085668	0.735319	14880.559570
8706.937303	1.130643	0.750844	505.397583
8706.938179	1.610596	0.750844	1916.279419
8706.939117	1.602667	0.750844	3419.581299
8706.940081	1.558682	0.750844	4922.150391
8706.941004	1.516241	0.750844	6321.641113
8706.941867	1.476079	0.750844	7595.497559
8706.942823	1.435675	0.750844	8968.002930
8706.943759	1.397135	0.750844	10275.721680
8706.944641	1.362422	0.750844	11477.377930
8706.945596	1.326222	0.750844	12743.919922
8706.946528	1.254368	0.750844	13912.990234
8706.947449	0.252891	0.750844	14145.902344
8706.948309	0.085862	0.750844	14219.743164
8706.949284	0.085602	0.750844	14303.205078
8706.950227	0.085573	0.750844	14383.900391
8706.951113	0.085580	0.750844	14459.724609
8706.952043	0.085613	0.750844	14539.344727
8706.952968	0.085580	0.750844	14618.505859
8706.953888	0.085635	0.750844	14697.290039
8706.954764	0.085584	0.750844	14772.260742
8706.955698	0.085576	0.750844	14852.188477
8707.981796	1.137125	0.743045	527.626099
8707.982679	1.612126	0.743045	1951.133789
8707.983554	1.604930	0.743045	3355.447754
8707.984521	1.561011	0.743045	4864.945312
8707.985484	1.516187	0.743045	6325.033203
8707.986403	1.474794	0.743045	7680.368652
8707.987275	1.436906	0.743045	8933.350586
8707.988314	1.395070	0.743045	10382.828125
8707.989205	1.359752	0.743045	11594.367187
8707.990076	1.325603	0.743045	12748.967773
8707.991013	1.209412	0.743045	13882.186523
8707.992003	0.205880	0.743045	14086.007812
8707.992914	0.085551	0.743045	14163.944336
8707.993800	0.085646	0.743045	14239.826172
8707.994790	0.085609	0.743045	14324.579102
8707.995702	0.085591	0.743045	14402.637695
8707.996630	0.085693	0.743045	14482.161133
8707.997491	0.085624	0.743045	14555.882812
8707.998524	0.085598	0.743045	14644.305664
8707.999401	0.085620	0.743045	14719.394531
8708.000268	0.085576	0.743045	14793.588867
8709.015013	1.139326	0.778224	532.065369
8709.015891	1.612097	0.778224	1947.486572
8709.016755	1.604209	0.778224	3333.522949
8709.017840	1.555397	0.778224	5021.128418
8709.018784	1.511671	0.778224	6448.145996
8709.019664	1.472241	0.778224	7743.718262
8709.020636	1.431387	0.778224	9135.026367
8709.021656	1.389408	0.778224	10552.222656
8709.022539	1.354680	0.778224	11748.405273
8709.023402	1.320831	0.778224	12888.283203
8709.024485	1.025687	0.778224	13999.102539
8709.025407	0.129785	0.778224	14118.764648
8709.026274	0.085605	0.778224	14192.984375
8709.027232	0.085737	0.778224	14275.121094
8709.028265	0.085646	0.778224	14363.592773
8709.029160	0.085679	0.778224	14440.275391
8709.030025	0.085675	0.778224	14514.384766
8709.031074	0.085649	0.778224	14604.231445
8709.032016	0.085690	0.778224	14684.951172
8709.032895	0.085638	0.778224	14760.227539
8709.033820	0.085770	0.778224	14839.565430
8710.059451	1.089866	0.773975	464.282776
8710.060489	1.614792	0.773975	2140.437256
8710.061519	1.592845	0.773975	3781.068115
8710.062411	1.551174	0.773975	5164.715820
8710.063373	1.507112	0.773975	6614.557617
8710.064442	1.459479	0.773975	8174.740234
8710.065363	1.420576	0.773975	9483.090820
8710.066236	1.384219	0.773975	10691.513672
8710.067321	1.342844	0.773975	12148.500000
8710.068324	1.304462	0.773975	13456.875000
8710.069224	0.747462	0.773975	14129.590820
8710.070203	0.093992	0.773975	14221.608398
8710.071252	0.085664	0.773975	14311.469727
8710.072160	0.085682	0.773975	14389.269531
8710.073021	0.085653	0.773975	14463.016602
8710.074118	0.085807	0.773975	14557.146484
8710.075094	0.085682	0.773975	14640.772461
8710.075960	0.085715	0.773975	14715.001953
8710.076969	0.085704	0.773975	14801.477539
8710.078016	0.085697	0.773975	14891.202148
8710.078899	0.085675	0.773975	14966.853516
8711.090646	1.103635	0.803639	491.117706
8711.091512	1.609435	0.803639	1884.888184
8711.092435	1.603202	0.803639	3364.643555
8711.093403	1.559535	0.803639	4874.273437
8711.094323	1.517025	0.803639	6269.936523
8711.095198	1.476782	0.803639	7562.121094
8711.096165	1.436345	0.803639	8951.066406
8711.097125	1.397175	0.803639	10292.354492
8711.098019	1.361418	0.803639	11509.462891
8711.098913	1.326694	0.803639	12695.527344
8711.099866	1.254976	0.803639	13891.519531
8711.100822	0.253217	0.803639	14133.594727
8711.101697	0.085605	0.803639	14208.500000
8711.102606	0.085591	0.803639	14286.301758
8711.103562	0.085668	0.803639	14368.200195
8711.104484	0.085594	0.803639	14447.118164
8711.105364	0.085591	0.803639	14522.438477
8711.106318	0.085620	0.803639	14604.120117
8711.107231	0.085580	0.803639	14682.254883
8711.108150	0.085576	0.803639	14760.899414
8711.109008	0.085558	0.803639	14834.307617
8712.136184	1.147266	0.791333	540.362122
8712.137072	1.612632	0.791333	1972.379150
8712.137939	1.603407	0.791333	3362.533203
8712.138921	1.559615	0.791333	4894.075684
8712.139867	1.515978	0.791333	6328.190918
8712.140748	1.475237	0.791333	7627.874512
8712.141640	1.436426	0.791333	8909.166016
8712.142599	1.396802	0.791333	10248.699219
8712.143556	1.360093	0.791333	11550.307617
8712.144450	1.325522	0.791333	12735.324219
8712.145364	1.257070	0.791333	13884.286133
8712.146329	0.250027	0.791333	14125.562500
8712.147244	0.085576	0.791333	14203.864258
8712.148108	0.085547	0.791333	14277.776367
8712.149065	0.085613	0.791333	14359.708008
8712.149994	0.085576	0.791333	14439.208008
8712.150908	0.085624	0.791333	14517.467773
8712.151764	0.085602	0.791333	14590.743164
8712.152722	0.085627	0.791333	14672.774414
8712.153652	0.085627	0.791333	14752.408203
8712.154530	0.085624	0.791333	14827.585937
8713.168348	1.114988	0.827173	500.629486
8713.169276	1.613119	0.827173	1997.603882
8713.170148	1.602792	0.827173	3395.238281
8713.171195	1.555591	0.827173	5023.941895
8713.172078	1.514323	0.827173	6361.088867
8713.173000	1.473168	0.827173	7719.349609
8713.173863	1.435459	0.827173	8958.150391
8713.174822	1.395410	0.827173	10296.348633
8713.175749	1.359536	0.827173	11556.638672
8713.176636	1.325570	0.827173	12732.418945
8713.177632	1.215762	0.827173	13943.317383
8713.178561	0.209396	0.827173	14137.845703
8713.179472	0.085551	0.827173	14215.782227
8713.180360	0.085657	0.827173	14291.845703
8713.181316	0.085671	0.827173	14373.747070
8713.182249	0.085602	0.827173	14453.613281
8713.183138	0.085605	0.827173	14529.716797
8713.184090	0.085664	0.827173	14611.268555
8713.185030	0.085591	0.827173	14691.723633
8713.185920	0.085554	0.827173	14767.867187
8713.186804	0.085631	0.827173	14843.565430
8714.213908	1.168260	0.821203	585.298462
8714.214838	1.616323	0.821203	2088.479004
8714.215718	1.600668	0.821203	3497.066650
8714.216646	1.557579	0.821203	4942.500488
8714.217704	1.509130	0.821203	6539.159668
8714.218602	1.468462	0.821203	7857.838379
8714.219471	1.431193	0.821203	9101.544922
8714.220517	1.388613	0.821203	10554.034180
8714.221471	1.351652	0.821203	11843.509766
8714.222349	1.317689	0.821203	13000.441406
8714.223254	1.069219	0.821203	13968.083984
8714.224328	0.125109	0.821203	14102.450195
8714.225208	0.085609	0.821203	14177.786133
8714.226066	0.085649	0.821203	14251.273437
8714.227091	0.085763	0.821203	14339.180664
8714.228059	0.085686	0.821203	14422.125000
8714.228934	0.085763	0.821203	14497.167969
8714.229804	0.085715	0.821203	14571.740234
8714.230917	0.085682	0.821203	14667.104492
8714.231814	0.085627	0.821203	14743.912109
8714.232680	0.085620	0.821203	14818.059570
8715.246040	1.136334	0.859790	510.214111
8715.246970	1.613536	0.859790	2010.802979
8715.247891	1.601309	0.859790	3485.608154
8715.248758	1.559399	0.859790	4837.607422
8715.249863	1.509902	0.859790	6506.049805
8715.250904	1.463742	0.859790	8029.804687
8715.251798	1.425637	0.859790	9304.324219
8715.252714	1.387720	0.859790	10575.475586
8715.253804	1.346008	0.859790	12042.625000
8715.254749	1.309750	0.859790	13280.338867
8715.255620	0.948805	0.859790	14106.748047
8715.256678	0.099265	0.859790	14211.770508
8715.257690	0.085591	0.859790	14298.388672
8715.258572	0.085551	0.859790	14373.844727
8715.259525	0.085690	0.859790	14455.506836
8715.260563	0.085580	0.859790	14544.338867
8715.261486	0.085620	0.859790	14623.366211
8715.262346	0.085657	0.859790	14697.031250
8715.263399	0.085726	0.859790	14787.300781
8715.264406	0.085591	0.859790	14873.491211
8715.265273	0.085657	0.859790	14947.755859
8716.290492	1.082842	0.840394	455.876373
8716.291454	1.611757	0.840394	2006.386230
8716.292403	1.599752	0.840394	3524.551025
8716.293310	1.557488	0.840394	4937.192383
8716.294192	1.515765	0.840394	6274.097656
8716.295161	1.472981	0.840394	7701.416016
8716.296112	1.432925	0.840394	9064.127930
8716.297004	1.395989	0.840394	10309.349609
8716.297922	1.360704	0.840394	11558.476562
8716.298868	1.323208	0.840394	12810.231445
8716.299796	1.234537	0.840394	13955.881836
8716.300679	0.246405	0.840394	14173.457031
8716.301615	0.085715	0.840394	14253.686523
8716.302568	0.085682	0.840394	14335.341797
8716.303486	0.085668	0.840394	14413.984375
8716.304347	0.085562	0.840394	14487.653320
8716.305286	0.085668	0.840394	14568.095703
8716.306235	0.085613	0.840394	14649.341797
8716.307125	0.085627	0.840394	14725.549805
8716.308034	0.085638	0.840394	14803.395508
8716.308953	0.085642	0.840394	14882.100586
8717.321669	1.093883	0.862239	470.369720
8717.322543	1.608618	0.862239	1876.302002
8717.323531	1.602158	0.862239	3459.234375
8717.324494	1.557191	0.862239	4958.809570
8717.325403	1.514711	0.862239	6335.681641
8717.326285	1.474640	0.862239	7636.313965
8717.327306	1.432020	0.862239	9098.406250
8717.328209	1.394363	0.862239	10357.515625
8717.329088	1.359899	0.862239	11552.866211
8717.329974	1.324464	0.862239	12726.341797
8717.331010	1.202780	0.862239	13972.421875
8717.331912	0.202460	0.862239	14155.041016
8717.332787	0.085591	0.862239	14229.932617
8717.333786	0.085613	0.862239	14315.459961
8717.334693	0.085620	0.862239	14393.117187
8717.335613	0.085576	0.862239	14471.847656
8717.336470	0.085660	0.862239	14545.258789
8717.337498	0.085693	0.862239	14633.351562
8717.338388	0.085598	0.862239	14709.534180
8717.339265	0.085646	0.862239	14784.645508
8717.340228	0.085664	0.862239	14867.139648
8718.367245	1.161878	0.856056	586.748169
8718.368129	1.614657	0.856056	2014.104980
8718.369047	1.600485	0.856056	3483.349854
8718.370121	1.551390	0.856056	5149.542969
8718.371070	1.507694	0.856056	6580.344727
8718.371933	1.468645	0.856056	7847.785156
8718.372993	1.424209	0.856056	9357.446289
8718.374005	1.383032	0.856056	10757.075195
8718.374892	1.348458	0.856056	11953.157227
8718.375850	1.312299	0.856056	13210.338867
8718.376886	0.807085	0.856056	14046.478516
8718.377816	0.096138	0.856056	14135.886719
8718.378672	0.085569	0.856056	14209.133789
8718.379713	0.085712	0.856056	14298.359375
8718.380742	0.085620	0.856056	14386.462891
8718.381632	0.085697	0.856056	14462.733398
8718.382582	0.085770	0.856056	14544.214844
8718.383630	0.085719	0.856056	14634.048828
8718.384541	0.085616	0.856056	14712.045898
8718.385403	0.085627	0.856056	14785.856445
8718.386490	0.085701	0.856056	14879.012695
8719.399392	1.114175	0.897870	515.862915
8719.400276	1.611760	0.897870	1940.658936
8719.401142	1.604388	0.897870	3330.059082
8719.402122	1.560645	0.897870	4859.490723
8719.403074	1.516725	0.897870	6303.412598
8719.403965	1.475863	0.897870	7618.406250
8719.404864	1.437081	0.897870	8910.342773
8719.405795	1.397571	0.897870	10211.481445
8719.406758	1.360389	0.897870	11521.536133
8719.407655	1.325918	0.897870	12710.884766
8719.408571	1.255327	0.897870	13860.764648
8719.409540	0.264456	0.897870	14117.022461
8719.410429	0.085638	0.897870	14193.155273
8719.411340	0.085613	0.897870	14271.148437
8719.412282	0.085660	0.897870	14351.840820
8719.413207	0.085642	0.897870	14431.059570
8719.414089	0.085675	0.897870	14506.625000
8719.415025	0.085649	0.897870	14586.792969
8719.415982	0.085627	0.897870	14668.738281
8719.416887	0.085620	0.897870	14746.224609
8719.417760	0.085602	0.897870	14820.955078
8720.443858	1.103903	0.877478	496.756165
8720.444816	1.614921	0.877478	2043.850098
8720.445740	1.599536	0.877478	3521.821533
8720.446622	1.558967	0.877478	4896.830566
8720.447535	1.516348	0.877478	6281.255859
8720.448508	1.472948	0.877478	7714.434570
8720.449435	1.433522	0.877478	9043.309570
8720.450305	1.397146	0.877478	10258.826172
8720.451277	1.359686	0.877478	11580.441406
8720.452228	1.323208	0.877478	12838.812500
8720.453129	1.243586	0.877478	13959.284180
8720.454052	0.252455	0.877478	14192.299805
8720.454975	0.085616	0.877478	14271.324219
8720.455894	0.085712	0.877478	14350.092773
8720.456762	0.085693	0.877478	14424.474609
8720.457727	0.085587	0.877478	14507.066406
8720.458670	0.085635	0.877478	14587.820312
8720.459554	0.085682	0.877478	14663.563477
8720.460462	0.085653	0.877478	14741.336914
8720.461393	0.085627	0.877478	14821.055664
8720.462329	0.085584	0.877478	14901.162109
8721.477111	1.148031	0.915727	540.722595
8721.477984	1.611899	0.915727	1947.910645
8721.478863	1.603857	0.915727	3357.701172
8721.479845	1.559443	0.915727	4889.074707
8721.480798	1.514509	0.915727	6332.402344
8721.481713	1.473644	0.915727	7680.786133
8721.482597	1.435613	0.915727	8949.868164
8721.483645	1.393048	0.915727	10409.782227
8721.484542	1.357742	0.915727	11627.676758
8721.485418	1.323746	0.915727	12787.278320
8721.486346	1.208214	0.915727	13908.500977
8721.487331	0.198538	0.915727	14104.060547
8721.488253	0.085613	0.915727	14182.995117
8721.489124	0.085675	0.915727	14257.618164
8721.490129	0.085635	0.915727	14343.680664
8721.491008	0.085591	0.915727	14418.915039
8721.491929	0.085660	0.915727	14497.808594
8721.492800	0.085668	0.915727	14572.424805
8721.493833	0.085649	0.915727	14660.900391
8721.494727	0.085598	0.915727	14737.424805
8721.495604	0.085635	0.915727	14812.526367
8722.520529	1.117533	0.898272	496.184570
8722.521402	1.609794	0.898272	1901.534424
8722.522432	1.599360	0.898272	3548.875488
8722.523480	1.551471	0.898272	5174.817383
8722.524366	1.509668	0.898272	6512.383301
8722.525261	1.468510	0.898272	7826.699219
8722.526340	1.423890	0.898272	9363.077148
8722.527298	1.384999	0.898272	10689.906250
8722.528159	1.351051	0.898272	11853.161133
8722.529187	1.311456	0.898272	13201.337891
8722.530228	0.806217	0.898272	14040.609375
8722.531116	0.097800	0.898272	14127.456055
8722.532045	0.085682	0.898272	14207.054687
8722.533099	0.085796	0.898272	14297.483398
8722.534040	0.085657	0.898272	14378.085937
8722.534912	0.085723	0.898272	14452.835937
8722.535966	0.085730	0.898272	14543.195312
8722.536983	0.085701	0.898272	14630.352539
8722.537877	0.085726	0.898272	14706.992187
8722.538821	0.085708	0.898272	14787.900391
8722.539868	0.085686	0.898272	14877.613281
8723.553740	1.107052	0.928154	478.246460
8723.554664	1.608999	0.928154	1964.961548
8723.555602	1.601609	0.928154	3467.270508
8723.556521	1.559301	0.928154	4900.267578
8723.557390	1.518468	0.928154	6219.816406
8723.558297	1.476094	0.928154	7558.633301
8723.559263	1.435272	0.928154	8945.106445
8723.560193	1.397468	0.928154	10244.751953
8723.561075	1.362268	0.928154	11446.272461
8723.562050	1.325200	0.928154	12738.342773
8723.562987	1.266321	0.928154	13924.885742
8723.563855	0.292280	0.928154	14178.584961
8723.564815	0.085745	0.928154	14260.899414
8723.565745	0.085631	0.928154	14340.536133
8723.566661	0.085638	0.928154	14418.980469
8723.567524	0.085591	0.928154	14492.845703
8723.568490	0.085638	0.928154	14575.572266
8723.569418	0.085627	0.928154	14655.034180
8723.570307	0.085616	0.928154	14731.147461
8723.571212	0.085690	0.928154	14808.696289
8723.572166	0.085657	0.928154	14890.413086
8724.597229	1.161859	0.917351	543.750061
8724.598159	1.614565	0.917351	2045.295898
8724.599083	1.599829	0.917351	3523.538086
8724.599957	1.558546	0.917351	4885.707520
8724.600928	1.514286	0.917351	6356.079102
8724.601892	1.471340	0.917351	7774.451172
8724.602785	1.433221	0.917351	9054.318359
8724.603706	1.395579	0.917351	10339.646484
8724.604666	1.358401	0.917351	11643.710937
8724.605587	1.322512	0.917351	12861.744141
8724.606449	1.257605	0.917351	13945.799805
8724.607399	0.219225	0.917351	14154.063477
8724.608361	0.085463	0.917351	14236.278320
8724.609247	0.085642	0.917351	14312.157227
8724.610337	0.085602	0.917351	14405.462891
8724.611285	0.085664	0.917351	14486.672852
8724.612203	0.085693	0.917351	14565.339844
8724.613065	0.085627	0.917351	14639.150391
8724.614033	0.085609	0.917351	14722.020508
8724.614976	0.085605	0.917351	14802.746094
8724.615867	0.085675	0.917351	14879.083008
8725.630428	1.118291	0.952337	495.402924
8725.631310	1.610607	0.952337	1915.958008
8725.632181	1.604498	0.952337	3313.476074
8725.633240	1.557048	0.952337	4962.390137
8725.634139	1.514949	0.952337	6324.329102
8725.635019	1.475035	0.952337	7622.360352
8725.635963	1.434869	0.952337	8976.876953
8725.636956	1.394377	0.952337	10361.494141
8725.637882	1.358049	0.952337	11619.047852
8725.638747	1.324211	0.952337	12764.490234
8725.639796	1.175629	0.952337	13997.724609
8725.640688	0.192828	0.952337	14169.727539
8725.641550	0.085529	0.952337	14243.453125
8725.642412	0.085573	0.952337	14317.216797
8725.643455	0.085609	0.952337	14406.506836
8725.644348	0.085558	0.952337	14482.910156
8725.645222	0.085616	0.952337	14557.739258
8725.646199	0.085569	0.952337	14641.339844
8725.647145	0.085635	0.952337	14722.350586
8725.648066	0.085664	0.952337	14801.247070
8725.648925	0.085708	0.952337	14874.870117
8726.673857	1.100753	0.943768	475.525391
8726.674722	1.607607	0.943768	1866.105713
8726.675834	1.595808	0.943768	3640.644287
8726.676810	1.550727	0.943768	5154.154297
8726.677684	1.510280	0.943768	6474.138672
8726.678724	1.463742	0.943768	7996.429687
8726.679769	1.420115	0.943768	9480.449219
8726.680664	1.383395	0.943768	10718.587891
8726.681599	1.347327	0.943768	11978.337891
8726.682668	1.306201	0.943768	13374.666992
8726.683620	0.750234	0.943768	14088.890625
8726.684483	0.095431	0.943768	14171.247070
8726.685547	0.085715	0.943768	14262.448242
8726.686559	0.085697	0.943768	14349.173828
8726.687441	0.085657	0.943768	14424.722656
8726.688400	0.085584	0.943768	14506.796875
8726.689443	0.085686	0.943768	14596.166992
8726.690362	0.085664	0.943768	14674.892578
8726.691221	0.085668	0.943768	14748.481445
8726.692282	0.085741	0.943768	14839.452148
8726.693285	0.085675	0.943768	14925.383789
8727.708123	1.107605	0.971181	492.884216
8727.708997	1.609468	0.971181	1899.559082
8727.709861	1.605326	0.971181	3286.560547
8727.710807	1.562318	0.971181	4764.513672
8727.711735	1.518530	0.971181	6173.709961
8727.712669	1.476705	0.971181	7552.952637
8727.713537	1.438634	0.971181	8801.687500
8727.714507	1.399369	0.971181	10159.075195
8727.715469	1.361975	0.971181	11469.294922
8727.716361	1.327321	0.971181	12653.264648
8727.717278	1.280310	0.971181	13827.308594
8727.718241	0.313868	0.971181	14129.563477
8727.719130	0.085865	0.971181	14205.897461
8727.720014	0.085605	0.971181	14281.572266
8727.720954	0.085697	0.971181	14362.127930
8727.721911	0.085682	0.971181	14444.125977
8727.722809	0.085686	0.971181	14521.072266
8727.723722	0.085642	0.971181	14599.263672
8727.724684	0.085653	0.971181	14681.662109
8727.725607	0.085657	0.971181	14760.723633
8727.726472	0.085646	0.971181	14834.807617
8728.750555	1.120294	0.963576	498.530914
8728.751479	1.612687	0.963576	1988.653442
8728.752349	1.603077	0.963576	3383.330811
8728.753331	1.559180	0.963576	4914.445312
8728.754265	1.515454	0.963576	6329.879395
8728.755150	1.474988	0.963576	7635.243652
8728.756025	1.436239	0.963576	8891.953125
8728.757003	1.396663	0.963576	10257.888672
8728.757928	1.360646	0.963576	11516.486328
8728.758810	1.325782	0.963576	12685.826172
8728.759826	1.231597	0.963576	13937.128906
8728.760729	0.230676	0.963576	14145.429687
8728.761655	0.085620	0.963576	14224.713867
8728.762518	0.085616	0.963576	14298.600586
8728.763506	0.085587	0.963576	14383.161133
8728.764424	0.085616	0.963576	14461.756836
8728.765301	0.085594	0.963576	14536.823242
8728.766254	0.085598	0.963576	14618.398437
8728.767158	0.085605	0.963576	14695.786133
8728.768073	0.085690	0.963576	14774.192383
8728.768942	0.085605	0.963576	14848.583984
8729.784762	1.098570	0.990384	465.793884
8729.785853	1.616158	0.990384	2229.022705
8729.786777	1.594666	0.990384	3702.493652
8729.787653	1.553932	0.990384	5063.737793
8729.788645	1.509104	0.990384	6560.769043
8729.789633	1.464115	0.990384	8007.314453
8729.790519	1.426523	0.990384	9271.213867
8729.791382	1.390177	0.990384	10470.936523
8729.792461	1.349579	0.990384	11927.131836
8729.793388	1.313756	0.990384	13144.983398
8729.794257	1.072610	0.990384	14077.081055
8729.795223	0.143064	0.990384	14215.281250
8729.796242	0.085594	0.990384	14302.501953
8729.797138	0.085660	0.990384	14379.253906
8729.797998	0.085664	0.990384	14452.924805
8729.799063	0.085697	0.990384	14544.192383
8729.800011	0.085660	0.990384	14625.398437
8729.800888	0.085598	0.990384	14700.467773
8729.801830	0.085616	0.990384	14781.118164
8729.802866	0.085580	0.990384	14869.779297
8729.803754	0.085620	0.990384	14945.809570
8730.828346	1.210001	0.985715	652.190613
8730.829375	1.618059	0.985715	2317.173584
8730.830268	1.593146	0.985715	3739.852539
8730.831208	1.549380	0.985715	5196.269531
8730.832286	1.499531	0.985715	6812.764160
8730.833231	1.458036	0.985715	8190.608398
8730.834100	1.421115	0.985715	9425.556641
8730.835163	1.378488	0.985715	10890.888672
8730.836185	1.338801	0.985715	12259.143555
8730.837085	1.304718	0.985715	13433.389648
8730.838053	0.683511	0.985715	14095.028320
8730.839118	0.087916	0.985715	14188.659180
8730.840035	0.085704	0.985715	14267.250000
8730.840895	0.085580	0.985715	14340.848633
8730.841968	0.085697	0.985715	14432.801758
8730.842964	0.085642	0.985715	14518.101562
8730.843838	0.085609	0.985715	14592.923828
8730.844817	0.085737	0.985715	14676.860352
8730.845862	0.085767	0.985715	14766.486328
8730.846757	0.085638	0.985715	14843.132812
8730.847614	0.085748	0.985715	14916.619141
8731.863540	1.154667	1.016443	557.703979
8731.864480	1.614796	1.016443	2075.612305
8731.865408	1.598419	1.016443	3558.945312
8731.866290	1.556883	1.016443	4932.116699
8731.867262	1.513077	1.016443	6402.828125
8731.868213	1.470271	1.016443	7801.055664
8731.869116	1.431515	1.016443	9093.713867
8731.869991	1.394960	1.016443	10314.303711
8731.870959	1.357485	1.016443	11628.349609
8731.871917	1.321132	1.016443	12893.994141
8731.872803	1.228729	1.016443	13982.648437
8731.873738	0.230347	1.016443	14198.022461
8731.874688	0.085569	1.016443	14279.312500
8731.875595	0.085591	1.016443	14356.943359
8731.876468	0.085602	1.016443	14431.673828
8731.877413	0.085642	1.016443	14512.605469
8731.878371	0.085653	1.016443	14594.661133
8731.879290	0.085598	1.016443	14673.326172
8731.880152	0.085587	1.016443	14747.102539
8731.881121	0.085657	1.016443	14830.103516
8731.882071	0.085624	1.016443	14911.446289
8732.904904	1.098160	1.003488	471.110809
8732.905829	1.608439	1.003488	1958.916626
8732.906751	1.601631	1.003488	3435.620361
8732.907659	1.559198	1.003488	4851.372070
8732.908555	1.518252	1.003488	6211.725586
8732.909465	1.476541	1.003488	7555.377441
8732.910422	1.436030	1.003488	8929.658203
8732.911356	1.397743	1.003488	10235.150391
8732.912224	1.363048	1.003488	11418.276367
8732.913193	1.326299	1.003488	12703.459961
8732.914150	1.267240	1.003488	13916.208984
8732.915041	0.284194	1.003488	14169.425781
8732.915924	0.085851	1.003488	14245.232422
8732.916877	0.085660	1.003488	14326.867187
8732.917805	0.085562	1.003488	14406.268555
8732.918694	0.085573	1.003488	14482.342773
8732.919608	0.085616	1.003488	14560.596680
8732.920558	0.085587	1.003488	14641.904297
8732.921470	0.085569	1.003488	14719.943359
8732.922347	0.085609	1.003488	14795.022461
8732.923301	0.085620	1.003488	14876.704102
