time (s)	coil I (A)	last det (V)	int current (uC)
8353.942476	1.106030	0.930116	468.956879
8353.943522	1.615653	0.930116	2158.929932
8353.944418	1.599408	0.930116	3591.999512
8353.945345	1.556858	0.930116	5035.207031
8353.946228	1.514674	0.930116	6372.664062
8353.947264	1.469253	0.930116	7894.810059
8353.948157	1.431255	0.930116	9172.920898
8353.949036	1.395374	0.930116	10399.454102
8353.950027	1.356877	0.930116	11744.119141
8353.950968	1.319898	0.930116	12986.142578
8353.951893	1.150397	0.930116	14050.259766
8353.952768	0.180355	0.930116	14208.070312
8353.953798	0.085536	0.930116	14296.171875
8353.954682	0.085580	0.930116	14371.824219
8353.955586	0.085646	0.930116	14449.248047
8353.956461	0.085594	0.930116	14524.143555
8353.957416	0.085635	0.930116	14605.924805
8353.958341	0.085664	0.930116	14685.164062
8353.959218	0.085587	0.930116	14760.223633
8353.960216	0.085624	0.930116	14845.675781
8353.961136	0.085591	0.930116	14924.418945
8354.973700	1.159922	0.969094	566.041870
8354.974577	1.615690	0.969094	1983.001709
8354.975457	1.605546	0.969094	3395.881836
8354.976418	1.561578	0.969094	4896.558594
8354.977382	1.516168	0.969094	6358.144531
8354.978297	1.475189	0.969094	7707.942383
8354.979178	1.437327	0.969094	8974.227539
8354.980218	1.395238	0.969094	10425.275391
8354.981121	1.359302	0.969094	11652.724609
8354.982001	1.324969	0.969094	12818.697266
8354.982902	1.199615	0.969094	13899.550781
8354.983942	0.178517	0.969094	14085.208008
8354.984831	0.085430	0.969094	14161.155273
8354.985697	0.085562	0.969094	14235.251953
8354.986684	0.085598	0.969094	14319.737305
8354.987603	0.085562	0.969094	14398.368164
8354.988518	0.085558	0.969094	14476.653320
8354.989391	0.085569	0.969094	14551.354492
8354.990426	0.085573	0.969094	14639.921875
8354.991312	0.085543	0.969094	14715.712891
8354.992183	0.085591	0.969094	14790.262695
8356.020677	1.097278	0.925129	471.829498
8356.021552	1.611533	0.925129	1881.921021
8356.022494	1.605736	0.925129	3394.524414
8356.023531	1.557913	0.925129	5010.079590
8356.024425	1.516289	0.925129	6365.642090
8356.025292	1.476856	0.925129	7646.075684
8356.026333	1.432698	0.925129	9137.513672
8356.027284	1.393363	0.925129	10462.601562
8356.028164	1.358840	0.925129	11658.380859
8356.029088	1.322834	0.925129	12880.679687
8356.030150	1.091851	0.925129	14040.224609
8356.031037	0.152347	0.925129	14175.356445
8356.031893	0.085576	0.925129	14248.609375
8356.032899	0.085737	0.925129	14334.861328
8356.033866	0.085624	0.925129	14417.659180
8356.034741	0.085573	0.925129	14492.535156
8356.035608	0.085605	0.925129	14566.754883
8356.036710	0.085719	0.925129	14661.216797
8356.037610	0.085653	0.925129	14738.304687
8356.038488	0.085675	0.925129	14813.527344
8356.039477	0.085715	0.925129	14898.299805
8357.051342	1.099087	0.960164	470.409180
8357.052359	1.615507	0.960164	2113.379395
8357.053392	1.595749	0.960164	3761.788574
8357.054291	1.552987	0.960164	5157.923828
8357.055220	1.510144	0.960164	6560.847656
8357.056284	1.462592	0.960164	8117.044922
8357.057240	1.422312	0.960164	9476.775391
8357.058110	1.386379	0.960164	10682.925781
8357.059180	1.345378	0.960164	12122.480469
8357.060191	1.306501	0.960164	13443.353516
8357.061078	0.787474	0.960164	14141.843750
8357.062042	0.097310	0.960164	14235.650391
8357.063083	0.085631	0.960164	14324.791992
8357.063984	0.085551	0.960164	14401.873047
8357.064857	0.085697	0.960164	14476.686523
8357.065816	0.085763	0.960164	14558.933594
8357.066838	0.085605	0.960164	14646.422852
8357.067734	0.085635	0.960164	14723.151367
8357.068598	0.085679	0.960164	14797.177734
8357.069676	0.085646	0.960164	14889.503906
8357.070624	0.085627	0.960164	14970.678711
8358.096848	1.117749	0.944832	498.516052
8358.097728	1.612529	0.944832	1917.541748
8358.098708	1.602971	0.944832	3488.453613
8358.099768	1.554111	0.944832	5135.811523
8358.100683	1.511433	0.944832	6518.772949
8358.101547	1.470963	0.944832	7789.685059
8358.102636	1.426121	0.944832	9342.730469
8358.103603	1.386489	0.944832	10683.465820
8358.104485	1.352307	0.944832	11876.201172
8358.105507	1.313481	0.944832	13218.579102
8358.106563	0.804067	0.944832	14067.673828
8358.107441	0.097544	0.944832	14153.317383
8358.108325	0.085573	0.944832	14228.963867
8358.109416	0.085627	0.944832	14322.383789
8358.110362	0.085594	0.944832	14403.356445
8358.111222	0.085598	0.944832	14476.970703
8358.112252	0.085715	0.944832	14565.257812
8358.113296	0.085646	0.944832	14654.671875
8358.114169	0.085638	0.944832	14729.434570
8358.115085	0.085594	0.944832	14807.838867
8358.116156	0.085638	0.944832	14899.557617
8359.129043	1.104705	0.996753	488.279449
8359.129918	1.611672	0.996753	1898.492676
8359.130786	1.607761	0.996753	3294.029297
8359.131821	1.560575	0.996753	4909.224609
8359.132874	1.511481	0.996753	6500.813477
8359.133803	1.469550	0.996753	7866.024902
8359.134671	1.431797	0.996753	9108.824219
8359.135755	1.388595	0.996753	10614.061523
8359.136752	1.349257	0.996753	11959.270508
8359.137647	1.314785	0.996753	13136.002930
8359.138645	0.911569	0.996753	14045.748047
8359.139704	0.098130	0.996753	14149.667969
8359.140597	0.085605	0.996753	14226.113281
8359.141455	0.085616	0.996753	14299.572266
8359.142542	0.085701	0.996753	14392.728516
8359.143528	0.085594	0.996753	14477.125000
8359.144406	0.085638	0.996753	14552.315430
8359.145409	0.085682	0.996753	14638.254883
8359.146464	0.085668	0.996753	14728.634766
8359.147344	0.085649	0.996753	14804.005859
8359.148227	0.085708	0.996753	14879.685547
8360.177133	1.104122	0.953561	524.458069
8360.178058	1.616957	0.953561	2020.143066
8360.178987	1.601624	0.953561	3508.051270
8360.179888	1.559916	0.953561	4913.535156
8360.180818	1.516205	0.953561	6323.605469
8360.181779	1.473647	0.953561	7739.780762
8360.182699	1.434415	0.953561	9059.442383
8360.183566	1.398080	0.953561	10271.578125
8360.184543	1.360759	0.953561	11601.040039
8360.185447	1.324182	0.953561	12798.100586
8360.186366	1.245315	0.953561	13942.544922
8360.187248	0.257084	0.953561	14169.292969
8360.188224	0.085540	0.953561	14252.779297
8360.189142	0.085616	0.953561	14331.375000
8360.190005	0.085543	0.953561	14405.199219
8360.190979	0.085624	0.953561	14488.596680
8360.191936	0.085649	0.953561	14570.563477
8360.192819	0.085649	0.953561	14646.192383
8360.193677	0.085605	0.953561	14719.641602
8360.194635	0.085602	0.953561	14801.648437
8360.195580	0.085576	0.953561	14882.517578
8361.207274	1.162471	0.981433	545.198730
8361.208211	1.616543	0.981433	2059.899414
8361.209142	1.601400	0.981433	3550.802979
8361.210013	1.560128	0.981433	4909.674805
8361.210986	1.515937	0.981433	6384.681641
8361.211940	1.473226	0.981433	7790.139648
8361.212835	1.434558	0.981433	9074.069336
8361.213748	1.397563	0.981433	10350.044922
8361.214706	1.359847	0.981433	11652.779297
8361.215638	1.323820	0.981433	12886.579102
8361.216502	1.260051	0.981433	13975.263672
8361.217420	0.242842	0.981433	14198.192383
8361.218360	0.085580	0.981433	14278.637695
8361.219253	0.085609	0.981433	14355.086914
8361.220163	0.085609	0.981433	14432.991211
8361.221120	0.085646	0.981433	14514.954102
8361.222039	0.085587	0.981433	14593.608398
8361.222910	0.085609	0.981433	14668.173828
8361.223870	0.085587	0.981433	14750.337891
8361.224817	0.085609	0.981433	14831.410156
8361.225743	0.085602	0.981433	14910.677734
8362.254810	1.119558	0.987633	494.844666
8362.255688	1.612317	0.987633	1910.458984
8362.256615	1.604967	0.987633	3398.263428
8362.257559	1.561051	0.987633	4871.895508
8362.258488	1.518230	0.987633	6282.331055
8362.259367	1.477885	0.987633	7581.391602
8362.260322	1.437656	0.987633	8954.353516
8362.261270	1.398039	0.987633	10279.695312
8362.262182	1.362275	0.987633	11522.090820
8362.263052	1.327767	0.987633	12677.248047
8362.264021	1.259645	0.987633	13897.843750
8362.264956	0.266569	0.987633	14147.084961
8362.265815	0.085778	0.987633	14220.767578
8362.266786	0.085613	0.987633	14303.897461
8362.267694	0.085598	0.987633	14381.620117
8362.268605	0.085649	0.987633	14459.646484
8362.269474	0.085642	0.987633	14534.069336
8362.270446	0.085686	0.987633	14617.356445
8362.271386	0.085646	0.987633	14697.863281
8362.272267	0.085638	0.987633	14773.310547
8362.273168	0.085646	0.987633	14850.477539
8363.296280	1.188479	0.429706	615.632141
8363.297187	1.618370	0.429706	2083.494141
8363.298108	1.602004	0.429706	3558.939941
8363.298978	1.560791	0.429706	4916.828125
8363.299988	1.515062	0.429706	6447.041016
8363.300913	1.473171	0.429706	7809.724609
8363.301791	1.435422	0.429706	9070.025391
8363.302689	1.398299	0.429706	10325.698242
8363.303624	1.360704	0.429706	11597.957031
8363.304575	1.324006	0.429706	12857.086914
8363.305468	1.253123	0.429706	13976.125000
8363.306391	0.238927	0.429706	14196.654297
8363.307350	0.085532	0.429706	14278.679687
8363.308270	0.085624	0.429706	14357.453125
8363.309132	0.085573	0.429706	14431.216797
8363.310090	0.085620	0.429706	14513.241211
8363.311038	0.085536	0.429706	14594.329102
8363.311929	0.085584	0.429706	14670.583984
8363.312812	0.085569	0.429706	14746.141602
8363.313756	0.085671	0.429706	14827.015625
8363.314671	0.085584	0.429706	14905.324219
8363.979708	1.101431	0.632323	469.209473
8363.980697	1.615569	0.632323	2067.007080
8363.981629	1.600891	0.632323	3559.037598
8363.982515	1.559901	0.632323	4941.109863
8363.983443	1.517043	0.632323	6348.926270
8363.984390	1.474248	0.632323	7745.039062
8363.985316	1.434719	0.632323	9073.588867
8363.986180	1.398373	0.632323	10281.783203
8363.987140	1.361045	0.632323	11588.386719
8363.988086	1.324157	0.632323	12841.039062
8363.988997	1.249823	0.632323	13979.627930
8363.989869	0.264547	0.632323	14210.313477
8363.990841	0.085580	0.632323	14293.497070
8363.991769	0.085576	0.632323	14372.912109
8363.992633	0.085529	0.632323	14446.808594
8363.993594	0.085565	0.632323	14529.037109
8363.994544	0.085525	0.632323	14610.286133
8363.995433	0.085598	0.632323	14686.382812
8363.996357	0.085562	0.632323	14765.441406
8363.997266	0.085613	0.632323	14843.263672
8363.998218	0.085569	0.632323	14924.725586
8364.323272	1.095634	0.032288	477.696198
8364.324147	1.602836	0.032288	1880.177368
8364.325136	1.594512	0.032288	3457.149414
8364.326147	1.547490	0.032288	5021.662109
8364.327037	1.506152	0.032288	6362.137695
8364.327898	1.466869	0.032288	7625.111816
8364.328949	1.423359	0.032288	9121.062500
8364.329876	1.385090	0.032288	10405.041016
8364.330757	1.351018	0.032288	11595.288086
8364.331714	1.314309	0.032288	12853.082031
8364.332755	1.058796	0.032288	13955.289062
8364.333656	0.138995	0.032288	14080.523437
8364.334520	0.085569	0.032288	14154.455078
8364.335590	0.085649	0.032288	14246.099609
8364.336526	0.085580	0.032288	14326.202148
8364.337403	0.085587	0.032288	14401.261719
8364.338353	0.085660	0.032288	14482.638672
8364.339387	0.085591	0.032288	14571.139648
8364.340259	0.085591	0.032288	14645.774414
8364.341127	0.085671	0.032288	14720.136719
8364.342061	0.085708	0.032288	14800.188477
8365.351499	1.225957	0.184406	692.665710
8365.352540	1.621406	0.184406	2380.549805
8365.353429	1.595490	0.184406	3798.939941
8365.354344	1.552104	0.184406	5219.115234
8365.355427	1.502765	0.184406	6846.609375
8365.356381	1.460676	0.184406	8240.094727
8365.357246	1.423828	0.184406	9471.706055
8365.358309	1.381186	0.184406	10939.907227
8365.359323	1.341552	0.184406	12300.240234
8365.360214	1.307604	0.184406	13465.315430
8365.361178	0.708204	0.184406	14148.024414
8365.362234	0.088839	0.184406	14241.838867
8365.363154	0.085613	0.184406	14320.602539
8365.364010	0.085649	0.184406	14393.917969
8365.365049	0.085701	0.184406	14482.960937
8365.366065	0.085547	0.184406	14569.876953
8365.366950	0.085631	0.184406	14645.660156
8365.367914	0.085660	0.184406	14728.236328
8365.368964	0.085620	0.184406	14818.137695
8365.369889	0.085565	0.184406	14897.285156
8365.370750	0.085609	0.184406	14970.994141
8366.400447	1.086779	0.181731	465.141205
8366.401511	1.617411	0.181731	2186.066162
8366.402537	1.594827	0.181731	3822.358398
8366.403424	1.552961	0.181731	5199.834961
8366.404391	1.509111	0.181731	6659.145508
8366.405444	1.461786	0.181731	8198.406250
8366.406372	1.422437	0.181731	9518.427734
8366.407233	1.386442	0.181731	10712.154297
8366.408288	1.346060	0.181731	12132.247070
8366.409314	1.307311	0.181731	13473.547852
8366.410193	0.781307	0.181731	14160.317383
8366.411159	0.096844	0.181731	14253.869141
8366.412217	0.085635	0.181731	14344.470703
8366.413127	0.085536	0.181731	14422.308594
8366.413993	0.085624	0.181731	14496.458984
8366.415081	0.085686	0.181731	14589.685547
8366.416075	0.085529	0.181731	14674.701172
8366.416968	0.085532	0.181731	14751.081055
8366.417949	0.085690	0.181731	14835.142578
8366.419000	0.085719	0.181731	14925.233398
8366.419897	0.085602	0.181731	15002.018555
8367.428119	1.172340	0.224886	590.859436
8367.429139	1.620498	0.224886	2243.767578
8367.430030	1.598584	0.224886	3668.105957
8367.430987	1.554459	0.224886	5155.723633
8367.432034	1.505607	0.224886	6732.093750
8367.432973	1.463965	0.224886	8106.756836
8367.433837	1.426296	0.224886	9339.077148
8367.434908	1.383527	0.224886	10820.833984
8367.435913	1.344320	0.224886	12171.875977
8367.436815	1.310013	0.224886	13353.507812
8367.437814	0.741475	0.224886	14094.241211
8367.438853	0.089952	0.224886	14187.702148
8367.439757	0.085547	0.224886	14265.036133
8367.440616	0.085474	0.224886	14338.458008
8367.441710	0.085671	0.224886	14432.182617
8367.442697	0.085532	0.224886	14516.602539
8367.443576	0.085598	0.224886	14591.843750
8367.444569	0.085653	0.224886	14676.897461
8367.445624	0.085649	0.224886	14767.257812
8367.446503	0.085536	0.224886	14842.444336
8367.447377	0.085591	0.224886	14917.250977
8368.487920	1.136572	0.257621	531.915833
8368.488817	1.614408	0.257621	1980.039795
8368.489682	1.605857	0.257621	3369.105957
8368.490656	1.562388	0.257621	4890.871582
8368.491603	1.518278	0.257621	6328.680664
8368.492490	1.477522	0.257621	7639.242676
8368.493413	1.438828	0.257621	8967.281250
8368.494360	1.398948	0.257621	10292.084961
8368.495299	1.361799	0.257621	11570.814453
8368.496192	1.327434	0.257621	12756.212891
8368.497106	1.261458	0.257621	13909.185547
8368.498071	0.249723	0.257621	14150.167969
8368.498993	0.085723	0.257621	14229.204102
8368.499857	0.085653	0.257621	14303.208008
8368.500822	0.085558	0.257621	14385.771484
8368.501769	0.085668	0.257621	14466.898437
8368.502640	0.085646	0.257621	14541.496094
8368.503560	0.085646	0.257621	14620.290039
8368.504483	0.085529	0.257621	14699.232422
8368.505425	0.085624	0.257621	14779.889648
8368.506311	0.085635	0.257621	14855.761719
8369.504738	1.141377	0.249181	517.043762
8369.505619	1.613419	0.249181	1938.466064
8369.506561	1.604429	0.249181	3449.837891
8369.507517	1.560919	0.249181	4942.076660
8369.508392	1.519772	0.249181	6271.876953
8369.509306	1.478357	0.249181	7623.095215
8369.510259	1.437693	0.249181	8993.216797
8369.511195	1.398988	0.249181	10302.669922
8369.512077	1.363850	0.249181	11505.585937
8369.513054	1.327079	0.249181	12802.142578
8369.513980	1.240785	0.249181	13951.109375
8369.514903	0.238696	0.249181	14171.425781
8369.515760	0.085704	0.249181	14244.874023
8369.516732	0.085682	0.249181	14328.157227
8369.517681	0.085591	0.249181	14409.382812
8369.518554	0.085686	0.249181	14484.186523
8369.519468	0.085613	0.249181	14562.436523
8369.520418	0.085646	0.249181	14643.799805
8369.521345	0.085543	0.249181	14723.098633
8369.522213	0.085668	0.249181	14797.458008
8369.523166	0.085693	0.249181	14879.124023
8370.565054	1.082314	0.217861	456.736725
8370.566021	1.613346	0.217861	2016.842163
8370.566954	1.603528	0.217861	3512.933594
8370.567837	1.562263	0.217861	4892.412109
8370.568710	1.520629	0.217861	6219.920898
8370.569661	1.477727	0.217861	7625.239258
8370.570615	1.437579	0.217861	8996.689453
8370.571504	1.400647	0.217861	10241.864258
8370.572427	1.364524	0.217861	11501.320312
8370.573391	1.327613	0.217861	12781.139648
8370.574310	1.262688	0.217861	13941.549805
8370.575202	0.279404	0.217861	14190.778320
8370.576129	0.085920	0.217861	14270.426758
8370.577081	0.085642	0.217861	14351.958008
8370.578006	0.085657	0.217861	14431.190430
8370.578867	0.085649	0.217861	14504.934570
8370.579813	0.085712	0.217861	14586.017578
8370.580762	0.085668	0.217861	14667.316406
8370.581656	0.085668	0.217861	14743.903320
8370.582567	0.085587	0.217861	14821.873047
8370.583502	0.085594	0.217861	14901.904297
8371.579843	1.085922	0.238720	465.860382
8371.580709	1.610178	0.238720	1860.274658
8371.581591	1.607432	0.238720	3278.029297
8371.582561	1.564039	0.238720	4795.147461
8371.583489	1.521354	0.238720	6206.963867
8371.584369	1.481510	0.238720	7510.692383
8371.585322	1.441527	0.238720	8884.467773
8371.586246	1.402430	0.238720	10180.313477
8371.587172	1.366084	0.238720	11445.307617
8371.588041	1.331931	0.238720	12602.755859
8371.589000	1.289344	0.238720	13839.237305
8371.589954	0.325737	0.238720	14149.990234
8371.590823	0.086107	0.238720	14224.817383
8371.591797	0.085686	0.238720	14308.275391
8371.592709	0.085573	0.238720	14386.317383
8371.593634	0.085620	0.238720	14465.515625
8371.594510	0.085624	0.238720	14540.522461
8371.595437	0.085620	0.238720	14619.892578
8371.596380	0.085690	0.238720	14700.698242
8371.597303	0.085712	0.238720	14779.810547
8371.598167	0.085624	0.238720	14853.789062
8372.641325	1.153938	0.260916	624.280518
8372.642297	1.619659	0.260916	2198.589355
8372.643225	1.598236	0.260916	3681.752441
8372.644092	1.556971	0.260916	5031.646484
8372.645114	1.510437	0.260916	6575.312988
8372.646007	1.469678	0.260916	7887.735352
8372.646882	1.432493	0.260916	9141.166016
8372.647775	1.394641	0.260916	10386.580078
8372.648823	1.354490	0.260916	11806.085937
8372.649725	1.319901	0.260916	12996.636719
8372.650602	1.175746	0.260916	14027.765625
8372.651624	0.163531	0.260916	14194.894531
8372.652554	0.085554	0.260916	14274.459961
8372.653473	0.085627	0.260916	14353.151367
8372.654338	0.085638	0.260916	14427.228516
8372.655359	0.085613	0.260916	14514.639648
8372.656244	0.085602	0.260916	14590.397461
8372.657109	0.085675	0.260916	14664.506836
8372.658083	0.085682	0.260916	14747.961914
8372.659022	0.085598	0.260916	14828.338867
8372.659934	0.085682	0.260916	14906.481445
8373.651929	1.127230	0.251779	510.635315
8373.652805	1.612665	0.251779	1923.329590
8373.653670	1.606461	0.251779	3312.918457
8373.654763	1.558041	0.251779	5015.856934
8373.655699	1.514487	0.251779	6433.416992
8373.656583	1.474457	0.251779	7736.836914
8373.657555	1.433862	0.251779	9130.550781
8373.658578	1.391246	0.251779	10553.795898
8373.659474	1.356302	0.251779	11769.042969
8373.660342	1.321692	0.251779	12916.271484
8373.661418	1.018916	0.251779	14012.625000
8373.662349	0.127723	0.251779	14131.535156
8373.663218	0.085510	0.251779	14205.843750
8373.664187	0.085664	0.251779	14288.852539
8373.665211	0.085624	0.251779	14376.531250
8373.666084	0.085609	0.251779	14451.267578
8373.666945	0.085638	0.251779	14525.001953
8373.667977	0.085642	0.251779	14613.384766
8373.668919	0.085594	0.251779	14694.014648
8373.669794	0.085591	0.251779	14768.906250
8373.670724	0.085660	0.251779	14848.570312
8374.722999	1.082377	0.283829	455.680603
8374.724047	1.616964	0.283829	2150.259033
8374.725072	1.595383	0.283829	3785.526855
8374.725970	1.553112	0.283829	5180.221191
8374.726835	1.512334	0.283829	6488.390137
8374.727903	1.465510	0.283829	8053.555176
8374.728842	1.425707	0.283829	9392.293945
8374.729720	1.389734	0.283829	10612.480469
8374.730690	1.352541	0.283829	11924.445312
8374.731724	1.312613	0.283829	13281.687500
8374.732615	0.956085	0.283829	14133.559570
8374.733471	0.119601	0.283829	14235.937500
8374.734506	0.085587	0.283829	14324.520508
8374.735455	0.085598	0.283829	14405.752930
8374.736330	0.085613	0.283829	14480.664062
8374.737252	0.085671	0.283829	14559.653320
8374.738299	0.085712	0.283829	14649.393555
8374.739185	0.085591	0.283829	14725.226562
8374.740047	0.085668	0.283829	14799.072266
8374.741085	0.085693	0.283829	14888.021484
8374.742057	0.085605	0.283829	14971.230469
8375.733173	1.102017	0.293867	461.744934
8375.734273	1.618458	0.293867	2242.049072
8375.735256	1.594947	0.293867	3809.882324
8375.736125	1.554009	0.293867	5160.315918
8375.737170	1.505640	0.293867	6733.709473
8375.738213	1.459779	0.293867	8256.258789
8375.739108	1.421792	0.293867	9528.762695
8375.740048	1.383735	0.293867	10829.473633
8375.741118	1.342083	0.293867	12265.501953
8375.742060	1.306161	0.293867	13495.905273
8375.742934	0.765685	0.293867	14165.113281
8375.743993	0.090227	0.293867	14260.664062
8375.745000	0.085642	0.293867	14346.905273
8375.745890	0.085613	0.293867	14423.100586
8375.746845	0.085664	0.293867	14504.910156
8375.747887	0.085671	0.293867	14594.179687
8375.748801	0.085631	0.293867	14672.446289
8375.749656	0.085620	0.293867	14745.651367
8375.750723	0.085745	0.293867	14837.140625
8375.751722	0.085602	0.293867	14922.657227
8375.752597	0.085660	0.293867	14997.610352
8376.794632	1.156725	0.244613	571.422058
8376.795519	1.616466	0.244613	2005.227539
8376.796396	1.603048	0.244613	3411.100586
8376.797508	1.553423	0.244613	5138.506836
8376.798482	1.508983	0.244613	6608.256348
8376.799352	1.469923	0.244613	7887.089355
8376.800376	1.426516	0.244613	9347.841797
8376.801413	1.384490	0.244613	10783.557617
8376.802301	1.349557	0.244613	11981.963867
8376.803223	1.314086	0.244613	13193.550781
8376.804301	0.775723	0.244613	14029.779297
8376.805250	0.092963	0.244613	14118.000977
8376.806111	0.085624	0.244613	14191.722656
8376.807169	0.085730	0.244613	14282.424805
8376.808178	0.085624	0.244613	14368.819336
8376.809058	0.085675	0.244613	14444.212891
8376.810000	0.085682	0.244613	14524.925781
8376.811046	0.085679	0.244613	14614.545898
8376.811973	0.085635	0.244613	14693.929687
8376.812835	0.085594	0.244613	14767.711914
8376.813879	0.085726	0.244613	14857.209961
8377.810891	1.096337	0.243679	475.810089
8377.811761	1.610222	0.243679	1876.703369
8377.812704	1.605406	0.243679	3390.601562
8377.813639	1.561619	0.243679	4850.714844
8377.814568	1.519109	0.243679	6261.966797
8377.815453	1.478174	0.243679	7570.150391
8377.816420	1.437338	0.243679	8960.055664
8377.817356	1.399065	0.243679	10269.580078
8377.818245	1.364052	0.243679	11482.221680
8377.819162	1.328815	0.243679	12700.745117
8377.820126	1.261934	0.243679	13917.249023
8377.821054	0.261559	0.243679	14159.975586
8377.821914	0.085770	0.243679	14233.738281
8377.822855	0.085525	0.243679	14314.216797
8377.823793	0.085594	0.243679	14394.504883
8377.824698	0.085616	0.243679	14471.987305
8377.825579	0.085598	0.243679	14547.399414
8377.826545	0.085551	0.243679	14630.041016
8377.827471	0.085580	0.243679	14709.288086
8377.828349	0.085620	0.243679	14784.462891
8377.829322	0.085620	0.243679	14867.771484
8378.863552	1.089309	0.274467	466.224304
8378.864423	1.609834	0.274467	1868.389648
8378.865400	1.604821	0.274467	3436.299316
8378.866328	1.561772	0.274467	4885.624023
8378.867211	1.520537	0.274467	6228.258301
8378.868119	1.480151	0.274467	7572.235840
8378.869061	1.439227	0.274467	8927.988281
8378.870001	1.400343	0.274467	10244.310547
8378.870882	1.365139	0.274467	11446.998047
8378.871807	1.328525	0.274467	12675.883789
8378.872778	1.258143	0.274467	13897.541016
8378.873712	0.271036	0.274467	14150.689453
8378.874588	0.085774	0.274467	14225.827148
8378.875562	0.085642	0.274467	14309.242187
8378.876501	0.085591	0.274467	14389.612305
8378.877385	0.085543	0.274467	14465.232422
8378.878253	0.085536	0.274467	14539.477539
8378.879218	0.085616	0.274467	14622.097656
8378.880172	0.085613	0.274467	14703.772461
8378.881040	0.085627	0.274467	14778.096680
8378.881949	0.085573	0.274467	14855.881836
8379.888098	1.129655	0.292002	504.955566
8379.888983	1.612423	0.292002	1931.949951
8379.889901	1.605037	0.292002	3405.373535
8379.890774	1.563278	0.292002	4770.114746
8379.891763	1.518691	0.292002	6272.100586
8379.892695	1.476661	0.292002	7648.349121
8379.893583	1.438861	0.292002	8926.057617
8379.894501	1.401325	0.292002	10212.473633
8379.895450	1.363477	0.292002	11506.413086
8379.896363	1.327910	0.292002	12718.794922
8379.897232	1.259172	0.292002	13813.015625
8379.898256	0.262844	0.292002	14082.167969
8379.899180	0.085690	0.292002	14161.345703
8379.900051	0.085682	0.292002	14235.974609
8379.900958	0.085624	0.292002	14313.635742
8379.901882	0.085635	0.292002	14392.762695
8379.902814	0.085565	0.292002	14472.509766
8379.903702	0.085675	0.292002	14548.588867
8379.904615	0.085627	0.292002	14626.766602
8379.905570	0.085635	0.292002	14708.547852
8379.906460	0.085638	0.292002	14784.765625
8380.936135	1.092601	0.252259	467.633392
8380.937058	1.610010	0.252259	1953.672485
8380.938046	1.601613	0.252259	3536.065674
8380.938969	1.558788	0.252259	4974.826660
8380.939850	1.517831	0.252259	6312.035645
8380.940901	1.471238	0.252259	7858.306641
8380.941811	1.431522	0.252259	9160.992187
8380.942692	1.395630	0.252259	10390.541992
8380.943686	1.356724	0.252259	11739.125000
8380.944661	1.318440	0.252259	13024.603516
8380.945589	1.103276	0.252259	14048.444336
8380.946471	0.158862	0.252259	14188.560547
8380.947469	0.085671	0.252259	14274.060547
8380.948389	0.085660	0.252259	14352.868164
8380.949312	0.085580	0.252259	14431.858398
8380.950170	0.085642	0.252259	14505.338867
8380.951195	0.085620	0.252259	14593.099609
8380.952089	0.085657	0.252259	14669.676758
8380.952964	0.085649	0.252259	14744.620117
8380.953933	0.085664	0.252259	14827.628906
8380.954877	0.085573	0.252259	14908.409180
8381.966399	1.197616	0.283676	667.072083
8381.967478	1.620330	0.283676	2415.407715
8381.968371	1.593446	0.283676	3838.354980
8381.969249	1.550402	0.283676	5199.607422
8381.970348	1.501501	0.283676	6849.757324
8381.971309	1.459347	0.283676	8252.189453
8381.972173	1.422660	0.283676	9481.367187
8381.973189	1.381241	0.283676	10884.708984
8381.974247	1.341182	0.283676	12303.679687
8381.975123	1.306534	0.283676	13448.204102
8381.976067	0.726339	0.283676	14133.868164
8381.977121	0.088751	0.283676	14227.412109
8381.978061	0.085536	0.283676	14307.815430
8381.978933	0.085587	0.283676	14382.447266
8381.979953	0.085734	0.283676	14469.895508
8381.980987	0.085668	0.283676	14558.475586
8381.981878	0.085602	0.283676	14634.747070
8381.982809	0.085598	0.283676	14714.438477
8381.983862	0.085745	0.283676	14804.727539
8381.984805	0.085620	0.283676	14885.467773
8381.985665	0.085631	0.283676	14959.110352
8383.015908	1.112834	0.287245	518.580872
8383.016987	1.619198	0.287245	2265.695557
8383.017942	1.594567	0.287245	3788.506836
8383.018812	1.553690	0.287245	5140.217285
8383.019858	1.505614	0.287245	6715.089355
8383.020896	1.459479	0.287245	8230.028320
8383.021795	1.421627	0.287245	9508.071289
8383.022744	1.383505	0.287245	10821.017578
8383.023782	1.342800	0.287245	12214.843750
8383.024717	1.307285	0.287245	13437.155273
8383.025591	0.801731	0.287245	14137.868164
8383.026651	0.091542	0.287245	14234.902344
8383.027658	0.085646	0.287245	14321.147461
8383.028531	0.085657	0.287245	14395.925781
8383.029518	0.085638	0.287245	14480.451172
8383.030569	0.085675	0.287245	14570.496094
8383.031473	0.085627	0.287245	14647.903320
8383.032340	0.085671	0.287245	14722.180664
8383.033399	0.085657	0.287245	14812.891602
8383.034383	0.085646	0.287245	14897.166992
8383.035266	0.085660	0.287245	14972.804687
8384.040387	1.092828	0.280248	468.823395
8384.041313	1.611866	0.280248	1961.411621
8384.042272	1.601884	0.280248	3497.617920
8384.043213	1.559154	0.280248	4964.781738
8384.044092	1.517739	0.280248	6298.874512
8384.045061	1.474944	0.280248	7728.094727
8384.045993	1.434891	0.280248	9065.413086
8384.046895	1.397629	0.280248	10326.075195
8384.047763	1.362557	0.280248	11508.775391
8384.048739	1.325449	0.280248	12802.414062
8384.049697	1.228074	0.280248	13978.908203
8384.050585	0.239575	0.280248	14191.651367
8384.051517	0.085697	0.280248	14271.520508
8384.052442	0.085613	0.280248	14350.711914
8384.053372	0.085521	0.280248	14430.247070
8384.054248	0.085726	0.280248	14505.343750
8384.055199	0.085551	0.280248	14586.702148
8384.056146	0.085536	0.280248	14667.705078
8384.057076	0.085616	0.280248	14747.328125
8384.057938	0.085554	0.280248	14821.076172
8384.058900	0.085576	0.280248	14903.400391
8385.089980	1.089441	0.275768	464.101837
8385.090956	1.616415	0.275768	2041.722656
8385.091882	1.601774	0.275768	3524.965088
8385.092805	1.559550	0.275768	4964.429199
8385.093671	1.518270	0.275768	6279.250977
8385.094653	1.474947	0.275768	7727.649414
8385.095602	1.434745	0.275768	9089.222656
8385.096479	1.398051	0.275768	10315.312500
8385.097391	1.362360	0.275768	11557.784180
8385.098351	1.325490	0.275768	12830.253906
8385.099276	1.240320	0.275768	13977.549805
8385.100159	0.250529	0.275768	14198.766602
8385.101101	0.085609	0.275768	14279.410156
8385.102070	0.085620	0.275768	14362.375977
8385.102995	0.085602	0.275768	14441.557617
8385.103856	0.085562	0.275768	14515.226562
8385.104827	0.085635	0.275768	14598.377930
8385.105752	0.085620	0.275768	14677.576172
8385.106609	0.085591	0.275768	14750.927734
8385.107561	0.085605	0.275768	14832.423828
8385.108500	0.085565	0.275768	14912.769531
8386.114505	1.113241	0.305300	484.259827
8386.115424	1.613862	0.305300	1967.399170
8386.116304	1.604531	0.305300	3379.386719
8386.117341	1.558246	0.305300	4995.287598
8386.118241	1.516362	0.305300	6360.013672
8386.119124	1.476669	0.305300	7663.912109
8386.120102	1.435411	0.305300	9067.744141
8386.121053	1.395604	0.305300	10394.963867
8386.121976	1.359551	0.305300	11649.829102
8386.122843	1.325632	0.305300	12799.152344
8386.123873	1.183228	0.305300	14017.876953
8386.124761	0.199849	0.305300	14195.342773
8386.125624	0.085525	0.305300	14269.150391
8386.126548	0.085657	0.305300	14348.296875
8386.127530	0.085594	0.305300	14432.350586
8386.128443	0.085536	0.305300	14510.445312
8386.129321	0.085638	0.305300	14585.635742
8386.130354	0.085719	0.305300	14674.183594
8386.131257	0.085605	0.305300	14751.485352
8386.132135	0.085627	0.305300	14826.666016
8386.132992	0.085664	0.305300	14900.080078
8387.172913	1.173600	0.323689	640.785522
8387.173923	1.620260	0.323689	2277.248047
8387.174803	1.597328	0.323689	3682.896484
8387.175677	1.555243	0.323689	5042.178711
8387.176757	1.506823	0.323689	6669.546875
8387.177680	1.465393	0.323689	8022.104492
8387.178562	1.428164	0.323689	9281.745117
8387.179547	1.388668	0.323689	10649.583008
8387.180560	1.348348	0.323689	12015.459961
8387.181453	1.314163	0.323689	13189.006836
8387.182317	1.006747	0.323689	14058.835937
8387.183415	0.104513	0.323689	14173.590820
8387.184334	0.085594	0.323689	14252.251953
8387.185211	0.085605	0.323689	14327.328125
8387.186199	0.085664	0.323689	14411.963867
8387.187201	0.085627	0.323689	14497.762695
8387.188083	0.085642	0.323689	14573.298828
8387.188940	0.085693	0.323689	14646.738281
8387.189983	0.085653	0.323689	14736.074219
8387.190922	0.085620	0.323689	14816.471680
8387.191797	0.085605	0.323689	14891.376953
8388.188660	1.171926	0.319947	562.524597
8388.189621	1.617308	0.319947	2116.757812
8388.190547	1.600272	0.319947	3598.609863
8388.191412	1.558960	0.319947	4947.110352
8388.192492	1.509997	0.319947	6577.907715
8388.193540	1.464130	0.319947	8112.315430
8388.194429	1.425681	0.319947	9379.746094
8388.195305	1.388452	0.319947	10596.030273
8388.196399	1.347327	0.319947	12070.005859
8388.197364	1.310530	0.319947	13334.666992
8388.198233	0.934512	0.319947	14146.757812
8388.199275	0.101792	0.319947	14252.825195
8388.200301	0.085587	0.319947	14340.637695
8388.201179	0.085609	0.319947	14415.802734
8388.202107	0.085752	0.319947	14495.380859
8388.203160	0.085774	0.319947	14585.701172
8388.204104	0.085657	0.319947	14666.561523
8388.204962	0.085657	0.319947	14740.054687
8388.205987	0.085693	0.319947	14827.890625
8388.207011	0.085649	0.319947	14915.595703
8388.207901	0.085657	0.319947	14991.830078
8389.250999	1.096853	0.314641	460.678253
8389.251985	1.615228	0.314641	2053.293213
8389.252922	1.601023	0.314641	3553.451660
8389.253804	1.560128	0.314641	4929.484863
8389.254716	1.518124	0.314641	6314.013672
8389.255674	1.474962	0.314641	7727.027344
8389.256596	1.435529	0.314641	9050.584961
8389.257464	1.399420	0.314641	10265.281250
8389.258434	1.362151	0.314641	11586.567383
8389.259363	1.325193	0.314641	12817.671875
8389.260264	1.255404	0.314641	13948.791016
8389.261148	0.273201	0.314641	14190.300781
8389.262117	0.085653	0.314641	14273.298828
8389.263040	0.085602	0.314641	14352.309570
8389.263916	0.085627	0.314641	14427.319336
8389.264877	0.085668	0.314641	14509.646484
8389.265823	0.085598	0.314641	14590.622070
8389.266721	0.085598	0.314641	14667.489258
8389.267581	0.085609	0.314641	14741.113281
8389.268549	0.085653	0.314641	14824.025391
8389.269499	0.085507	0.314641	14905.256836
8390.265799	1.103602	0.325373	480.066986
8390.266666	1.609838	0.325373	1875.796265
8390.267637	1.604202	0.325373	3433.476074
8390.268571	1.561154	0.325373	4891.593750
8390.269452	1.520255	0.325373	6230.938477
8390.270362	1.479646	0.325373	7577.416016
8390.271317	1.438857	0.325373	8951.525391
8390.272239	1.400478	0.325373	10242.766602
8390.273104	1.365641	0.325373	11424.045898
8390.274037	1.329049	0.325373	12664.048828
8390.274979	1.273444	0.325373	13863.632812
8390.275908	0.300520	0.325373	14142.815430
8390.276769	0.086016	0.325373	14216.875000
8390.277735	0.085605	0.325373	14299.570312
8390.278682	0.085605	0.325373	14380.638672
8390.279564	0.085653	0.325373	14456.184570
8390.280470	0.085668	0.325373	14533.799805
8390.281416	0.085616	0.325373	14614.792969
8390.282335	0.085624	0.325373	14693.481445
8390.283209	0.085701	0.325373	14768.383789
8390.284121	0.085657	0.325373	14846.502930
8391.326743	1.166049	0.328708	600.515076
8391.327645	1.616107	0.328708	2058.243652
8391.328560	1.601979	0.328708	3524.054199
8391.329424	1.561080	0.328708	4872.827637
8391.330387	1.516699	0.328708	6333.409180
8391.331325	1.473527	0.328708	7715.577148
8391.332254	1.434675	0.328708	9048.390625
8391.333127	1.397761	0.328708	10268.636719
8391.334104	1.359939	0.328708	11597.296875
8391.335036	1.324471	0.328708	12831.704102
8391.335901	1.224998	0.328708	13891.327148
8391.336931	0.191246	0.328708	14088.310547
8391.337813	0.085525	0.328708	14163.743164
8391.338732	0.085605	0.328708	14242.415039
8391.339594	0.085668	0.328708	14316.260742
8391.340579	0.085708	0.328708	14400.683594
8391.341483	0.085638	0.328708	14478.100586
8391.342371	0.085558	0.328708	14554.076172
8391.343306	0.085708	0.328708	14634.212891
8391.344252	0.085664	0.328708	14715.250977
8391.345181	0.085631	0.328708	14794.802734
8392.339968	1.157175	0.329828	551.972595
8392.340849	1.614012	0.329828	1973.917480
8392.341710	1.605330	0.329828	3356.106445
8392.342769	1.557784	0.329828	5005.800293
8392.343703	1.514158	0.329828	6420.023437
8392.344578	1.474695	0.329828	7710.381348
8392.345509	1.434701	0.329828	9046.087891
8392.346582	1.391624	0.329828	10539.299805
8392.347461	1.356226	0.329828	11731.421875
8392.348345	1.322281	0.329828	12900.318359
8392.349291	1.124498	0.329828	13964.093750
8392.350269	0.154984	0.329828	14115.667969
8392.351176	0.085573	0.329828	14193.282227
8392.352058	0.085529	0.329828	14268.718750
8392.353081	0.085605	0.329828	14356.292969
8392.353968	0.085584	0.329828	14432.205078
8392.354884	0.085594	0.329828	14510.609375
8392.355745	0.085616	0.329828	14584.325195
8392.356778	0.085558	0.329828	14672.706055
8392.357659	0.085657	0.329828	14748.169922
8392.358524	0.085642	0.329828	14822.250000
8393.405453	1.134873	0.361189	576.515503
8393.406495	1.620070	0.361189	2264.627930
8393.407395	1.596324	0.361189	3701.319824
8393.408262	1.555397	0.361189	5049.848633
8393.409311	1.507408	0.361189	6631.120117
8393.410254	1.465312	0.361189	8012.909668
8393.411130	1.428296	0.361189	9264.096680
8393.412055	1.390137	0.361189	10549.972656
8393.413108	1.349692	0.361189	11971.199219
8393.413994	1.315225	0.361189	13136.488281
8393.414857	1.079227	0.361189	14067.861328
8393.415894	0.119692	0.361189	14191.982422
8393.416857	0.085543	0.361189	14274.360352
8393.417729	0.085558	0.361189	14348.966797
8393.418620	0.085554	0.361189	14425.195312
8393.419717	0.085660	0.361189	14519.165039
8393.420614	0.085624	0.361189	14595.969727
8393.421480	0.085576	0.361189	14670.079102
8393.422514	0.085624	0.361189	14758.614258
8393.423489	0.085580	0.361189	14842.054687
8393.424366	0.085686	0.361189	14917.201172
8394.419704	1.144658	0.367795	552.869934
8394.420592	1.614804	0.367795	1986.815430
8394.421532	1.601957	0.367795	3492.654785
8394.422612	1.552375	0.367795	5169.220215
8394.423554	1.508822	0.367795	6590.530273
8394.424422	1.469513	0.367795	7866.067383
8394.425486	1.424791	0.367795	9382.044922
8394.426502	1.383354	0.367795	10787.533203
8394.427396	1.348696	0.367795	11993.267578
8394.428367	1.311907	0.367795	13267.128906
8394.429421	0.748605	0.367795	14056.158203
8394.430327	0.093501	0.367795	14140.870117
8394.431191	0.085723	0.367795	14214.934570
8394.432260	0.085668	0.367795	14306.513672
8394.433247	0.085635	0.367795	14391.035156
8394.434119	0.085697	0.367795	14465.762695
8394.435108	0.085723	0.367795	14550.541992
8394.436145	0.085616	0.367795	14639.326172
8394.437047	0.085646	0.367795	14716.579102
8394.437906	0.085631	0.367795	14790.135742
8394.438976	0.085627	0.367795	14881.756836
8395.479492	1.096282	0.337583	465.919708
8395.480405	1.609753	0.337583	1935.624512
8395.481344	1.603227	0.337583	3441.055176
8395.482263	1.561370	0.337583	4875.953613
8395.483138	1.520471	0.337583	6206.365723
8395.484052	1.478478	0.337583	7557.694336
8395.485017	1.437638	0.337583	8945.014648
8395.485943	1.399541	0.337583	10240.989258
8395.486822	1.364517	0.337583	11440.399414
8395.487803	1.327200	0.337583	12742.382812
8395.488759	1.255807	0.337583	13942.934570
8395.489658	0.255278	0.337583	14172.429687
8395.490544	0.085785	0.337583	14248.435547
8395.491489	0.085518	0.337583	14329.250000
8395.492434	0.085653	0.337583	14410.192383
8395.493306	0.085635	0.337583	14484.866211
8395.494212	0.085642	0.337583	14562.458008
8395.495158	0.085547	0.337583	14643.385742
8395.496083	0.085558	0.337583	14722.526367
8395.496960	0.085558	0.337583	14797.560547
8395.497916	0.085708	0.337583	14879.497070
8396.495297	1.087269	0.352181	463.176666
8396.496220	1.609321	0.352181	1948.580078
8396.497188	1.603158	0.352181	3500.437012
8396.498116	1.559557	0.352181	4947.706055
8396.498983	1.518864	0.352181	6264.560547
8396.499903	1.476584	0.352181	7623.018066
8396.500870	1.435562	0.352181	9011.206055
8396.501802	1.397336	0.352181	10313.523437
8396.502683	1.362433	0.352181	11513.827148
8396.503662	1.325259	0.352181	12811.255859
8396.504618	1.223456	0.352181	13980.879883
8396.505527	0.213787	0.352181	14175.211914
8396.506419	0.085627	0.352181	14251.591797
8396.507374	0.085668	0.352181	14333.404297
8396.508328	0.085562	0.352181	14415.030273
8396.509203	0.085642	0.352181	14489.966797
8396.510114	0.085697	0.352181	14568.037109
8396.511068	0.085591	0.352181	14649.690430
8396.511999	0.085638	0.352181	14729.419922
8396.512882	0.085708	0.352181	14805.099609
8396.513832	0.085649	0.352181	14886.466797
8397.556230	1.187706	0.385818	591.477783
8397.557154	1.616601	0.385818	2085.217529
8397.558075	1.600770	0.385818	3559.526855
8397.558955	1.559568	0.385818	4931.946777
8397.559929	1.515223	0.385818	6407.774414
8397.560889	1.472325	0.385818	7821.207031
8397.561785	1.433522	0.385818	9105.642578
8397.562703	1.396952	0.385818	10388.044922
8397.563638	1.359053	0.385818	11658.759766
8397.564581	1.322556	0.385818	12905.929687
8397.565461	1.239005	0.385818	13996.253906
8397.566408	0.224454	0.385818	14208.812500
8397.567333	0.085529	0.385818	14287.926758
8397.568257	0.085605	0.385818	14367.026367
8397.569132	0.085708	0.385818	14442.020508
8397.570089	0.085616	0.385818	14523.955078
8397.571015	0.085642	0.385818	14603.259766
8397.571892	0.085594	0.385818	14678.326172
8397.572891	0.085584	0.385818	14763.824219
8397.573836	0.085591	0.385818	14844.708008
8397.574757	0.085653	0.385818	14923.594727
8398.573515	1.097805	0.382321	478.643036
8398.574378	1.609497	0.382321	1867.639038
8398.575431	1.600840	0.382321	3553.323242
8398.576369	1.556785	0.382321	5013.587402
8398.577248	1.516069	0.382321	6346.212402
8398.578162	1.474252	0.382321	7693.678711
8398.579242	1.429244	0.382321	9237.262695
8398.580139	1.392129	0.382321	10486.001953
8398.581011	1.357775	0.382321	11669.981445
8398.581936	1.322179	0.382321	12892.997070
8398.582944	1.129918	0.382321	14031.955078
8398.583871	0.149795	0.382321	14170.815430
8398.584749	0.085536	0.382321	14245.916016
8398.585761	0.085686	0.382321	14332.629883
8398.586663	0.085562	0.382321	14409.806641
8398.587584	0.085653	0.382321	14488.693359
8398.588440	0.085723	0.382321	14562.072266
8398.589455	0.085558	0.382321	14648.913086
8398.590352	0.085594	0.382321	14725.691406
8398.591225	0.085675	0.382321	14800.485352
8398.592192	0.085620	0.382321	14883.280273
8399.630785	1.083153	0.364411	458.173737
8399.631781	1.611028	0.364411	2062.757568
8399.632780	1.597753	0.364411	3658.912598
8399.633664	1.556180	0.364411	5034.576172
8399.634527	1.514502	0.364411	6341.591309
8399.635627	1.467286	0.364411	7955.606445
8399.636545	1.427747	0.364411	9266.277344
8399.637428	1.391949	0.364411	10495.369141
8399.638416	1.353662	0.364411	11832.787109
8399.639418	1.314514	0.364411	13149.930664
8399.640327	1.030071	0.364411	14086.264648
8399.641193	0.135062	0.364411	14203.228516
8399.642277	0.085671	0.364411	14296.096680
8399.643180	0.085675	0.364411	14373.460937
8399.644050	0.085642	0.364411	14447.969727
8399.645043	0.085646	0.364411	14533.015625
8399.646039	0.085631	0.364411	14618.304687
8399.646929	0.085756	0.364411	14694.626953
8399.647787	0.085708	0.364411	14768.164062
8399.648844	0.085675	0.364411	14858.722656
8399.649760	0.085605	0.364411	14937.137695
8400.649195	1.145218	0.374349	535.962280
8400.650076	1.613320	0.374349	1957.297485
8400.651058	1.601631	0.374349	3530.099121
8400.652104	1.553068	0.374349	5154.607910
8400.653016	1.510452	0.374349	6532.139648
8400.653883	1.470505	0.374349	7807.067871
8400.654957	1.426157	0.374349	9338.760742
8400.655957	1.385229	0.374349	10723.990234
8400.656842	1.351088	0.374349	11919.703125
8400.657850	1.312767	0.374349	13242.972656
8400.658905	0.780579	0.374349	14066.483398
8400.659780	0.096031	0.374349	14150.510742
8400.660647	0.085591	0.374349	14224.717773
8400.661738	0.085745	0.374349	14318.265625
8400.662725	0.085562	0.374349	14402.714844
8400.663588	0.085715	0.374349	14476.687500
8400.664653	0.085734	0.374349	14567.994141
8400.665697	0.085664	0.374349	14657.427734
8400.666584	0.085646	0.374349	14733.395508
8400.667506	0.085642	0.374349	14812.357422
8400.668566	0.085697	0.374349	14903.196289
8401.705493	1.165708	0.388114	586.351074
8401.706385	1.616012	0.388114	2027.833740
8401.707254	1.602074	0.388114	3420.036133
8401.708361	1.552987	0.388114	5139.192871
8401.709318	1.508778	0.388114	6583.093750
8401.710183	1.469824	0.388114	7854.491699
8401.711229	1.425648	0.388114	9345.719727
8401.712282	1.383289	0.388114	10802.322266
8401.713166	1.348217	0.388114	11994.145508
8401.714100	1.312496	0.388114	13220.017578
8401.715174	0.758752	0.388114	14034.917969
8401.716110	0.092703	0.388114	14121.687500
8401.716969	0.085649	0.388114	14195.260742
8401.717996	0.085649	0.388114	14283.222656
8401.719015	0.085594	0.388114	14370.443359
8401.719900	0.085602	0.388114	14446.201172
8401.720856	0.085679	0.388114	14528.110352
8401.721905	0.085602	0.388114	14617.906250
8401.722830	0.085514	0.388114	14697.006836
8401.723693	0.085591	0.388114	14770.872070
8401.724745	0.085726	0.388114	14861.056641
8402.726393	1.123839	0.409170	533.823547
8402.727292	1.613419	0.409170	1984.287354
8402.728167	1.604689	0.409170	3388.390137
8402.729050	1.563549	0.409170	4769.003418
8402.729993	1.518948	0.409170	6201.371094
8402.730951	1.476328	0.409170	7615.693359
8402.731852	1.438030	0.409170	8911.358398
8402.732778	1.399922	0.409170	10207.685547
8402.733733	1.362707	0.409170	11509.071289
8402.734660	1.326548	0.409170	12738.781250
8402.735537	1.282401	0.409170	13863.447266
8402.736499	0.278979	0.409170	14131.825195
8402.737432	0.085613	0.409170	14211.702148
8402.738359	0.085580	0.409170	14291.034180
8402.739218	0.085569	0.409170	14364.538086
8402.740177	0.085551	0.409170	14446.581055
8402.741126	0.085605	0.409170	14527.820312
8402.741999	0.085642	0.409170	14602.585937
8402.742906	0.085679	0.409170	14680.296875
8402.743832	0.085565	0.409170	14759.530273
8402.744761	0.085510	0.409170	14838.969727
8403.784647	1.098446	0.394261	472.331848
8403.785569	1.609563	0.394261	1956.348877
8403.786515	1.603004	0.394261	3472.791016
8403.787452	1.559458	0.394261	4934.002930
8403.788328	1.518831	0.394261	6264.498535
8403.789242	1.476269	0.394261	7613.808594
8403.790203	1.435642	0.394261	8993.460937
8403.791131	1.397640	0.394261	10290.470703
8403.792009	1.362751	0.394261	11486.966797
8403.792976	1.326152	0.394261	12769.356445
8403.793928	1.249915	0.394261	13959.275391
8403.794822	0.244508	0.394261	14177.865234
8403.795684	0.085708	0.394261	14251.745117
8403.796663	0.085627	0.394261	14335.574219
8403.797585	0.085635	0.394261	14414.529297
8403.798445	0.085620	0.394261	14488.162109
8403.799415	0.085584	0.394261	14571.177734
8403.800350	0.085605	0.394261	14651.218750
8403.801244	0.085646	0.394261	14727.786133
8403.802140	0.085573	0.394261	14804.458984
8403.803078	0.085551	0.394261	14884.705078
8404.800956	1.089382	0.409488	461.898102
8404.801980	1.616125	0.409488	2116.810547
8404.802880	1.600349	0.409488	3557.124756
8404.803761	1.559399	0.409488	4930.955566
8404.804694	1.516527	0.409488	6345.875488
8404.805689	1.471666	0.409488	7810.183594
8404.806615	1.432438	0.409488	9136.621094
8404.807489	1.396230	0.409488	10356.926758
8404.808530	1.356379	0.409488	11768.917969
8404.809420	1.321322	0.409488	12944.894531
8404.810347	1.176881	0.409488	14035.863281
8404.811212	0.198790	0.409488	14207.816406
8404.812155	0.085598	0.409488	14288.535156
8404.813092	0.085573	0.409488	14368.716797
8404.813980	0.085627	0.409488	14444.753906
8404.814935	0.085763	0.409488	14526.657227
8404.815876	0.085668	0.409488	14607.270508
8404.816788	0.085576	0.409488	14685.316406
8404.817654	0.085682	0.409488	14759.517578
8404.818686	0.085719	0.409488	14847.979492
8404.819564	0.085620	0.409488	14923.154297
8405.861905	1.172684	0.413077	580.478760
8405.862792	1.614913	0.413077	2012.906860
8405.863668	1.604235	0.413077	3418.216309
8405.864629	1.560132	0.413077	4917.502930
8405.865625	1.514238	0.413077	6425.684082
8405.866535	1.472505	0.413077	7765.663574
8405.867417	1.435001	0.413077	9031.334961
8405.868432	1.394015	0.413077	10446.259766
8405.869336	1.357921	0.413077	11673.820312
8405.870214	1.323845	0.413077	12836.156250
8405.871087	1.197184	0.413077	13881.297852
8405.872147	0.170457	0.413077	14061.981445
8405.873040	0.085558	0.413077	14138.384766
8405.873915	0.085726	0.413077	14213.395508
8405.874913	0.085609	0.413077	14298.833008
8405.875835	0.085620	0.413077	14377.774414
8405.876752	0.085580	0.413077	14456.250977
8405.877612	0.085686	0.413077	14529.941406
8405.878625	0.085664	0.413077	14616.718750
8405.879518	0.085668	0.413077	14693.219727
8405.880389	0.085613	0.413077	14767.788086
8406.878225	1.168129	0.423474	595.745667
8406.879126	1.616495	0.423474	2052.208008
8406.879992	1.601759	0.423474	3439.331299
8406.881084	1.552969	0.423474	5135.173340
8406.882076	1.506899	0.423474	6630.017578
8406.882971	1.467235	0.423474	7943.192871
8406.883964	1.425590	0.423474	9358.803711
8406.885010	1.383354	0.423474	10805.792969
8406.885889	1.348546	0.423474	11991.165039
8406.886761	1.313686	0.423474	13136.699219
8406.887845	0.818610	0.423474	14024.072266
8406.888806	0.094988	0.423474	14115.355469
8406.889666	0.085576	0.423474	14188.951172
8406.890731	0.085701	0.423474	14280.222656
8406.891767	0.085671	0.423474	14368.978516
8406.892639	0.085697	0.423474	14443.706055
8406.893543	0.085675	0.423474	14521.156250
8406.894627	0.085635	0.423474	14613.984375
8406.895582	0.085569	0.423474	14695.702148
8406.896446	0.085602	0.423474	14769.662109
8406.897472	0.085715	0.423474	14857.606445
8407.937079	1.179577	0.414511	649.946655
8407.938130	1.619355	0.414511	2351.889160
8407.939030	1.593838	0.414511	3786.343262
8407.939891	1.551746	0.414511	5122.395996
8407.940960	1.503798	0.414511	6729.955566
8407.941962	1.459010	0.414511	8191.883789
8407.942856	1.421847	0.414511	9463.014648
8407.943852	1.381582	0.414511	10839.070312
8407.944921	1.340424	0.414511	12271.983398
8407.945815	1.306102	0.414511	13439.638672
8407.946723	0.737604	0.414511	14109.382812
8407.947802	0.088795	0.414511	14205.192383
8407.948753	0.085631	0.414511	14286.627930
8407.949619	0.085664	0.414511	14360.813477
8407.950651	0.085726	0.414511	14449.283203
8407.951688	0.085697	0.414511	14538.151367
8407.952584	0.085646	0.414511	14614.889648
8407.953510	0.085704	0.414511	14694.251953
8407.954552	0.085701	0.414511	14783.551758
8407.955492	0.085631	0.414511	14864.044922
8407.956355	0.085653	0.414511	14937.963867
8408.953795	1.091876	0.424183	469.506805
8408.954668	1.609581	0.424183	1874.671265
8408.955588	1.604740	0.424183	3351.032227
8408.956549	1.560831	0.424183	4850.991211
8408.957481	1.518212	0.424183	6265.964355
8408.958356	1.477669	0.424183	7558.924316
8408.959337	1.436550	0.424183	8968.179687
8408.960298	1.397238	0.424183	10310.924805
8408.961197	1.361792	0.424183	11535.175781
8408.962121	1.326196	0.424183	12760.581055
8408.963077	1.246593	0.424183	13952.324219
8408.964013	0.237129	0.424183	14174.277344
8408.964871	0.085627	0.424183	14247.746094
8408.965818	0.085664	0.424183	14328.870117
8408.966773	0.085646	0.424183	14410.662109
8408.967692	0.085646	0.424183	14489.370117
8408.968560	0.085580	0.424183	14563.653320
8408.969525	0.085668	0.424183	14646.322266
8408.970482	0.085591	0.424183	14728.232422
8408.971372	0.085704	0.424183	14804.509766
8408.972257	0.085638	0.424183	14880.299805
8410.014643	1.080590	0.443822	452.767059
8410.015627	1.613298	0.443822	2040.252563
8410.016561	1.601301	0.443822	3535.867920
8410.017445	1.559993	0.443822	4914.901367
8410.018346	1.518420	0.443822	6282.998047
8410.019295	1.474823	0.443822	7682.604980
8410.020256	1.434540	0.443822	9061.197266
8410.021131	1.397985	0.443822	10284.433594
8410.022050	1.361459	0.443822	11535.614258
8410.023010	1.324885	0.443822	12807.503906
8410.023909	1.263677	0.443822	13943.548828
8410.024828	0.278075	0.443822	14199.099609
8410.025777	0.085642	0.443822	14280.374023
8410.026691	0.085638	0.443822	14358.647461
8410.027573	0.085638	0.443822	14434.180664
8410.028505	0.085686	0.443822	14514.040039
8410.029461	0.085690	0.443822	14595.958984
8410.030384	0.085693	0.443822	14675.053711
8410.031241	0.085745	0.443822	14748.537109
8410.032182	0.085668	0.443822	14829.150391
8410.033121	0.085649	0.443822	14909.575195
8411.033531	1.080326	0.441215	455.897552
8411.034548	1.613998	0.441215	2097.333252
8411.035465	1.600085	0.441215	3564.611572
8411.036381	1.557422	0.441215	4991.209961
8411.037253	1.515410	0.441215	6312.647461
8411.038297	1.470132	0.441215	7847.464844
8411.039187	1.431775	0.441215	9121.744141
8411.040096	1.394498	0.441215	10389.342773
8411.040979	1.359126	0.441215	11589.451172
8411.041970	1.321578	0.441215	12899.135742
8411.042901	1.183927	0.441215	14001.372070
8411.043783	0.201372	0.441215	14178.982422
8411.044812	0.085554	0.441215	14267.017578
8411.045704	0.085624	0.441215	14343.393555
8411.046619	0.085631	0.441215	14421.746094
8411.047483	0.085697	0.441215	14495.788086
8411.048484	0.085565	0.441215	14581.438477
8411.049408	0.085646	0.441215	14660.575195
8411.050285	0.085697	0.441215	14735.731445
8411.051213	0.085649	0.441215	14815.213867
8411.052142	0.085704	0.441215	14894.833008
8412.086711	1.078107	0.446090	452.804840
8412.087749	1.615071	0.446090	2129.248291
8412.088646	1.599474	0.446090	3563.976318
8412.089570	1.557305	0.446090	5002.925781
8412.090433	1.515403	0.446090	6310.718262
8412.091477	1.470352	0.446090	7845.765137
8412.092361	1.432302	0.446090	9111.919922
8412.093239	1.396476	0.446090	10338.025391
8412.094225	1.358119	0.446090	11677.130859
8412.095173	1.320886	0.446090	12929.331055
8412.096093	1.189314	0.446090	14023.500000
8412.096960	0.205159	0.446090	14201.373047
8412.097998	0.085576	0.446090	14290.201172
8412.098896	0.085587	0.446090	14367.058594
8412.099770	0.085591	0.446090	14441.865234
8412.100746	0.085734	0.446090	14525.541016
8412.101696	0.085602	0.446090	14606.862305
8412.102608	0.085605	0.446090	14684.934570
8412.103468	0.085649	0.446090	14758.592773
8412.104477	0.085620	0.446090	14844.983398
8412.105371	0.085620	0.446090	14921.527344
8413.110322	1.193284	0.455435	647.953064
8413.111337	1.619945	0.455435	2292.197266
8413.112231	1.595544	0.455435	3718.613770
8413.113096	1.553848	0.455435	5062.691895
8413.114200	1.504567	0.455435	6723.733398
8413.115124	1.463002	0.455435	8075.546875
8413.116014	1.425623	0.455435	9344.350586
8413.116995	1.386251	0.455435	10704.262695
8413.117993	1.346982	0.455435	12048.550781
8413.118875	1.313049	0.455435	13206.660156
8413.119739	0.990245	0.455435	14062.232422
8413.120823	0.105410	0.455435	14176.497070
8413.121739	0.085602	0.455435	14254.908203
8413.122602	0.085664	0.455435	14328.835937
8413.123566	0.085759	0.455435	14411.507812
8413.124585	0.085719	0.455435	14498.855469
8413.125474	0.085671	0.455435	14575.017578
8413.126338	0.085675	0.455435	14649.041016
8413.127402	0.085660	0.455435	14740.183594
8413.128343	0.085576	0.455435	14820.710937
8413.129219	0.085664	0.455435	14895.752930
8414.161872	1.093510	0.463448	483.331238
8414.162785	1.609823	0.463448	1953.099609
8414.163868	1.596292	0.463448	3681.883301
8414.164802	1.552544	0.463448	5131.959473
8414.165676	1.511931	0.463448	6453.387207
8414.166707	1.465763	0.463448	7964.588867
8414.167745	1.422173	0.463448	9440.804687
8414.168640	1.385728	0.463448	10681.031250
8414.169598	1.348975	0.463448	11973.348633
8414.170665	1.307644	0.463448	13368.604492
8414.171600	0.784259	0.463448	14101.886719
8414.172468	0.097636	0.463448	14186.634766
8414.173537	0.085686	0.463448	14278.233398
8414.174541	0.085642	0.463448	14364.217773
8414.175430	0.085675	0.463448	14440.382812
8414.176381	0.085660	0.463448	14521.845703
8414.177429	0.085759	0.463448	14611.721680
8414.178345	0.085668	0.463448	14690.193359
8414.179206	0.085748	0.463448	14764.022461
8414.180285	0.085803	0.463448	14856.604492
8414.181271	0.085653	0.463448	14941.058594
8415.190055	1.182239	0.461868	613.581909
8415.191075	1.619008	0.461868	2264.969727
8415.191956	1.596841	0.461868	3671.786621
8415.192940	1.552086	0.461868	5199.039551
8415.193993	1.503025	0.461868	6781.724609
8415.194909	1.461757	0.461868	8120.693359
8415.195771	1.424074	0.461868	9348.245117
8415.196858	1.381285	0.461868	10849.702148
8415.197844	1.342185	0.461868	12173.096680
8415.198734	1.308750	0.461868	13337.883789
8415.199738	0.725039	0.461868	14065.823242
8415.200793	0.089403	0.461868	14160.143555
8415.201690	0.085551	0.461868	14236.882812
8415.202549	0.085638	0.461868	14310.446289
8415.203641	0.085664	0.461868	14403.991211
8415.204613	0.085635	0.461868	14487.228516
8415.205480	0.085624	0.461868	14561.463867
8415.206545	0.085671	0.461868	14652.704102
8415.207585	0.085657	0.461868	14741.787109
8415.208474	0.085609	0.461868	14817.893555
8415.209377	0.085723	0.461868	14895.300781
8416.235497	1.108092	0.467830	523.019470
8416.236463	1.615188	0.467830	2083.291016
8416.237395	1.599657	0.467830	3574.171387
8416.238264	1.558956	0.467830	4928.904297
8416.239205	1.514634	0.467830	6354.174805
8416.240168	1.471802	0.467830	7771.520020
8416.241098	1.432731	0.467830	9103.959961
8416.241964	1.395406	0.467830	10312.381836
8416.243059	1.353992	0.467830	11795.002930
8416.244108	1.314584	0.467830	13174.000977
8416.244982	1.029196	0.467830	14073.517578
8416.245884	0.134579	0.467830	14194.908203
8416.246966	0.085558	0.467830	14287.481445
8416.247919	0.085613	0.467830	14369.070312
8416.248782	0.085624	0.467830	14442.963867
8416.249796	0.085756	0.467830	14529.919922
8416.250831	0.085613	0.467830	14618.529297
8416.251722	0.085547	0.467830	14694.751953
8416.252648	0.085759	0.467830	14774.165039
8416.253721	0.085660	0.467830	14866.079102
8416.254667	0.085642	0.467830	14947.096680
8417.266626	1.084501	0.481357	464.166351
8417.267493	1.608768	0.481357	1858.968384
8417.268479	1.603868	0.481357	3440.382812
8417.269409	1.560190	0.481357	4891.359863
8417.270319	1.517974	0.481357	6272.715820
8417.271192	1.477452	0.481357	7562.531738
8417.272165	1.436503	0.481357	8960.249023
8417.273118	1.397575	0.481357	10292.137695
8417.273994	1.362697	0.481357	11485.859375
8417.274909	1.327049	0.481357	12700.109375
8417.275871	1.245560	0.481357	13898.337891
8417.276804	0.255348	0.481357	14136.577148
8417.277679	0.085778	0.481357	14211.632812
8417.278625	0.085551	0.481357	14292.563477
8417.279551	0.085499	0.481357	14371.735352
8417.280473	0.085631	0.481357	14450.687500
8417.281333	0.085627	0.481357	14524.327148
8417.282301	0.085594	0.481357	14607.182617
8417.283245	0.085649	0.481357	14688.036133
8417.284116	0.085627	0.481357	14762.617187
8417.285026	0.085598	0.481357	14840.511719
8418.312163	1.135814	0.477623	519.067078
8418.313062	1.613295	0.477623	1969.418945
8418.313931	1.604128	0.477623	3363.406738
8418.314914	1.560070	0.477623	4896.955078
8418.315871	1.515967	0.477623	6347.735352
8418.316770	1.474926	0.477623	7673.693359
8418.317681	1.436653	0.477623	8982.484375
8418.318645	1.397285	0.477623	10329.466797
8418.319577	1.360184	0.477623	11597.158203
8418.320440	1.326357	0.477623	12741.804687
8418.321378	1.247655	0.477623	13912.105469
8418.322349	0.241135	0.477623	14146.248047
8418.323250	0.085737	0.477623	14223.497070
8418.324124	0.085638	0.477623	14298.344727
8418.325082	0.085594	0.477623	14380.343750
8418.326031	0.085657	0.477623	14461.631836
8418.326920	0.085660	0.477623	14537.784180
8418.327832	0.085635	0.477623	14615.882812
8418.328760	0.085587	0.477623	14695.307617
8418.329712	0.085602	0.477623	14776.800781
8418.330596	0.085664	0.477623	14852.527344
8419.343292	1.081157	0.498965	456.248383
8419.344213	1.609790	0.498965	1938.864990
8419.345163	1.602228	0.498965	3460.981445
8419.346094	1.559352	0.498965	4912.737793
8419.346976	1.518021	0.498965	6251.632812
8419.347950	1.474666	0.498965	7687.957031
8419.348894	1.434749	0.498965	9042.359375
8419.349797	1.397117	0.498965	10303.956055
8419.350665	1.362221	0.498965	11486.363281
8419.351630	1.325570	0.498965	12765.538086
8419.352586	1.240595	0.498965	13951.546875
8419.353472	0.254674	0.498965	14177.188477
8419.354377	0.085752	0.498965	14254.793945
8419.355325	0.085613	0.498965	14335.955078
8419.356249	0.085653	0.498965	14415.098633
8419.357126	0.085598	0.498965	14490.167969
8419.358063	0.085638	0.498965	14570.411133
8419.358995	0.085594	0.498965	14650.185547
8419.359916	0.085624	0.498965	14729.044922
8419.360779	0.085616	0.498965	14802.931641
8419.361745	0.085664	0.498965	14885.683594
8420.389305	1.080758	0.508778	453.918335
8420.390239	1.608343	0.508778	1956.111206
8420.391160	1.602341	0.508778	3431.867676
8420.392107	1.559784	0.508778	4908.982910
8420.392977	1.519069	0.508778	6230.572754
8420.394001	1.472076	0.508778	7737.979004
8420.394953	1.432214	0.508778	9101.447266
8420.395879	1.394323	0.508778	10392.589844
8420.396749	1.359540	0.508778	11575.389648
8420.397719	1.323047	0.508778	12858.745117
8420.398676	1.193350	0.508778	14000.780273
8420.399576	0.202738	0.508778	14183.244141
8420.400459	0.085594	0.508778	14258.824219
8420.401408	0.085631	0.508778	14340.087891
8420.402335	0.085613	0.508778	14419.451172
8420.403196	0.085620	0.508778	14493.169922
8420.404226	0.085605	0.508778	14581.343750
8420.405149	0.085609	0.508778	14660.361328
8420.406034	0.085671	0.508778	14736.180664
8420.406915	0.085605	0.508778	14811.598633
8420.407869	0.085605	0.508778	14893.266602
8421.418955	1.102116	0.519228	475.011780
8421.419948	1.610475	0.519228	2074.213379
8421.420895	1.598657	0.519228	3588.141846
8421.421822	1.555924	0.519228	5030.483398
8421.422691	1.514762	0.519228	6346.811523
8421.423739	1.468989	0.519228	7886.312500
8421.424629	1.430640	0.519228	9159.582031
8421.425498	1.394802	0.519228	10371.665039
8421.426459	1.357504	0.519228	11676.226562
8421.427416	1.320055	0.519228	12939.519531
8421.428334	1.168070	0.519228	14011.807617
8421.429219	0.188013	0.519228	14178.199219
8421.430251	0.085591	0.519228	14266.529297
8421.431134	0.085540	0.519228	14342.060547
8421.432005	0.085657	0.519228	14416.667969
8421.432884	0.085664	0.519228	14491.966797
8421.433923	0.085671	0.519228	14580.979492
8421.434812	0.085635	0.519228	14657.108398
8421.435680	0.085653	0.519228	14731.455078
8421.436657	0.085649	0.519228	14815.134766
8421.437575	0.085664	0.519228	14893.774414
8422.469683	1.200432	0.526285	637.429504
8422.470647	1.618718	0.526285	2197.874023
8422.471530	1.598185	0.526285	3609.071289
8422.472462	1.554869	0.526285	5058.209473
8422.473517	1.506599	0.526285	6647.671387
8422.474418	1.466071	0.526285	7968.601074
8422.475285	1.428995	0.526285	9207.540039
8422.476342	1.386068	0.526285	10672.614258
8422.477303	1.348938	0.526285	11968.943359
8422.478186	1.314771	0.526285	13129.885742
8422.479098	0.981984	0.526285	14025.455078
8422.480168	0.106677	0.526285	14139.599609
8422.481045	0.085543	0.526285	14214.621094
8422.481904	0.085686	0.526285	14288.225586
8422.482932	0.085620	0.526285	14376.243164
8422.483898	0.085580	0.526285	14458.913086
8422.484761	0.085627	0.526285	14532.809570
8422.485628	0.085686	0.526285	14607.099609
8422.486714	0.085737	0.526285	14700.209961
8422.487613	0.085657	0.526285	14777.215820
8422.488489	0.085649	0.526285	14852.245117
8423.492631	1.171765	0.533206	592.913147
8423.493635	1.618682	0.533206	2218.069336
8423.494536	1.596757	0.533206	3656.747070
8423.495521	1.551288	0.533206	5184.765625
8423.496573	1.502325	0.533206	6765.211914
8423.497487	1.461848	0.533206	8101.340820
8423.498356	1.423473	0.533206	9338.338867
8423.499460	1.380231	0.533206	10862.113281
8423.500436	1.342712	0.533206	12172.600586
8423.501305	1.309259	0.533206	13310.346680
8423.502393	0.652284	0.533206	14020.031250
8423.503423	0.087759	0.533206	14110.422852
8423.504317	0.085594	0.533206	14186.944336
8423.505220	0.085770	0.533206	14264.394531
8423.506282	0.085701	0.533206	14355.408203
8423.507230	0.085635	0.533206	14436.589844
8423.508091	0.085635	0.533206	14510.321289
8423.509117	0.085767	0.533206	14598.317383
8423.510142	0.085616	0.533206	14686.074219
8423.511020	0.085518	0.533206	14761.158203
8423.511962	0.085605	0.533206	14841.798828
8424.549410	1.179888	0.558181	606.462280
8424.550371	1.618121	0.558181	2161.476807
8424.551237	1.599990	0.558181	3547.068359
8424.552289	1.551101	0.558181	5178.826660
8424.553323	1.503768	0.558181	6733.723145
8424.554212	1.463895	0.558181	8035.125977
8424.555144	1.424473	0.558181	9362.734375
8424.556209	1.381359	0.558181	10833.880859
8424.557160	1.344697	0.558181	12112.687500
8424.558021	1.311046	0.558181	13241.498047
8424.559088	0.752007	0.558181	14043.889648
8424.560108	0.090037	0.558181	14135.726562
8424.560977	0.085569	0.558181	14210.085937
8424.561929	0.085675	0.558181	14291.648437
8424.562987	0.085723	0.558181	14382.342773
8424.563908	0.085653	0.558181	14461.229492
8424.564776	0.085668	0.558181	14535.588867
8424.565835	0.085748	0.558181	14626.396484
8424.566830	0.085657	0.558181	14711.625000
8424.567724	0.085613	0.558181	14788.163086
8424.568692	0.085693	0.558181	14871.114258
8425.569817	1.169626	0.563442	593.000610
8425.570703	1.615470	0.563442	2024.307129
8425.571592	1.600902	0.563442	3447.509033
8425.572704	1.550856	0.563442	5172.060547
8425.573665	1.506614	0.563442	6619.916504
8425.574536	1.467396	0.563442	7898.018555
8425.575585	1.423271	0.563442	9391.030273
8425.576620	1.381421	0.563442	10820.800781
8425.577518	1.346320	0.563442	12029.795898
8425.578473	1.310175	0.563442	13281.012695
8425.579528	0.712833	0.563442	14033.051758
8425.580456	0.091274	0.563442	14117.754883
8425.581316	0.085602	0.563442	14191.372070
8425.582381	0.085741	0.563442	14282.686523
8425.583401	0.085620	0.563442	14370.018555
8425.584275	0.085569	0.563442	14444.805664
8425.585252	0.085704	0.563442	14528.539062
8425.586295	0.085712	0.563442	14617.936523
8425.587196	0.085587	0.563442	14695.050781
8425.588061	0.085642	0.563442	14769.130859
8425.589107	0.085671	0.563442	14858.743164
8426.624999	1.106349	0.556828	507.814117
8426.625886	1.612416	0.556828	1938.026855
8426.626756	1.605070	0.556828	3334.437500
8426.627715	1.561263	0.556828	4831.688965
8426.628655	1.517069	0.556828	6257.733887
8426.629586	1.475479	0.556828	7631.404297
8426.630450	1.437393	0.556828	8873.311523
8426.631424	1.398281	0.556828	10235.237305
8426.632386	1.360715	0.556828	11544.245117
8426.633268	1.325999	0.556828	12713.775391
8426.634182	1.256382	0.556828	13862.108398
8426.635153	0.263643	0.556828	14118.105469
8426.636043	0.085554	0.556828	14194.249023
8426.636928	0.085631	0.556828	14270.032227
8426.637876	0.085591	0.556828	14351.171875
8426.638820	0.085540	0.556828	14431.920898
8426.639712	0.085594	0.556828	14508.271484
8426.640643	0.085624	0.556828	14587.987305
8426.641590	0.085646	0.556828	14669.093750
8426.642512	0.085609	0.556828	14748.025391
8426.643370	0.085646	0.556828	14821.509766
8427.644865	1.087024	0.567229	464.159180
8427.645732	1.608014	0.567229	1858.307251
8427.646703	1.602964	0.567229	3414.785156
8427.647634	1.559667	0.567229	4866.834961
8427.648559	1.517190	0.567229	6270.235840
8427.649425	1.477148	0.567229	7549.446289
8427.650393	1.436982	0.567229	8940.445312
8427.651348	1.397996	0.567229	10275.531250
8427.652229	1.362363	0.567229	11475.773437
8427.653151	1.327046	0.567229	12699.309570
8427.654104	1.253086	0.567229	13893.500000
8427.655039	0.257260	0.567229	14134.038086
8427.655912	0.085690	0.567229	14208.844727
8427.656840	0.085584	0.567229	14288.266602
8427.657788	0.085620	0.567229	14369.434570
8427.658711	0.085653	0.567229	14448.492187
8427.659572	0.085609	0.567229	14522.201172
8427.660536	0.085616	0.567229	14604.735352
8427.661488	0.085587	0.567229	14686.213867
8427.662356	0.085686	0.567229	14760.588867
8427.663227	0.085598	0.567229	14835.144531
8428.702795	1.214619	0.577852	683.830566
8428.703680	1.617045	0.577852	2114.915039
8428.704603	1.599031	0.577852	3590.820312
8428.705472	1.558162	0.577852	4944.862793
8428.706419	1.513411	0.577852	6378.062500
8428.707383	1.470699	0.577852	7795.816895
8428.708285	1.432537	0.577852	9087.964844
8428.709251	1.393528	0.577852	10434.113281
8428.710199	1.355581	0.577852	11719.204102
8428.711128	1.319956	0.577852	12945.443359
8428.712014	1.203018	0.577852	14011.316406
8428.712955	0.200504	0.577852	14199.991211
8428.713895	0.085609	0.577852	14280.463867
8428.714817	0.085737	0.577852	14359.513672
8428.715681	0.085653	0.577852	14433.517578
8428.716600	0.085620	0.577852	14512.202148
8428.717530	0.085649	0.577852	14591.856445
8428.718416	0.085576	0.577852	14667.676758
8428.719608	0.085624	0.577852	14769.740234
8428.720500	0.085653	0.577852	14846.142578
8428.721404	0.085679	0.577852	14923.595703
8429.722175	1.217611	0.593103	675.774170
8429.723156	1.619238	0.593103	2264.247070
8429.724042	1.596273	0.593103	3678.545166
8429.724907	1.554115	0.593103	5022.854492
8429.726021	1.505273	0.593103	6699.729004
8429.726935	1.464291	0.593103	8038.090820
8429.727799	1.427267	0.593103	9271.249023
8429.728881	1.383592	0.593103	10768.295898
8429.729872	1.345107	0.593103	12101.296875
8429.730753	1.311193	0.593103	13256.458008
8429.731645	0.895785	0.593103	14055.498047
8429.732752	0.096112	0.593103	14161.894531
8429.733630	0.085631	0.593103	14237.079102
8429.734495	0.085638	0.593103	14311.156250
8429.735381	0.085657	0.593103	14387.047852
8429.736429	0.085638	0.593103	14476.796875
8429.737321	0.085620	0.593103	14553.169922
8429.738181	0.085602	0.593103	14626.787109
8429.739253	0.085660	0.593103	14718.615234
8429.740173	0.085598	0.593103	14797.365234
8429.741090	0.085646	0.593103	14875.902344
8430.778904	1.174654	0.611504	599.073792
8430.779850	1.617147	0.611504	2128.895020
8430.780713	1.600214	0.611504	3509.879395
8430.781768	1.551760	0.611504	5146.986328
8430.782797	1.504706	0.611504	6695.328613
8430.783673	1.464932	0.611504	7978.608398
8430.784631	1.424839	0.611504	9343.604492
8430.785691	1.381604	0.611504	10808.104492
8430.786610	1.345474	0.611504	12044.594727
8430.787494	1.311874	0.611504	13204.291016
8430.788479	0.863027	0.611504	14054.373047
8430.789486	0.094746	0.611504	14149.782227
8430.790372	0.085594	0.611504	14225.619141
8430.791230	0.085679	0.611504	14299.131836
8430.792303	0.085642	0.611504	14391.025391
8430.793241	0.085609	0.611504	14471.327148
8430.794115	0.085609	0.611504	14546.149414
8430.795065	0.085752	0.611504	14627.613281
8430.796085	0.085649	0.611504	14714.975586
8430.796957	0.085627	0.611504	14789.642578
8430.797813	0.085620	0.611504	14862.933594
8431.800248	1.079531	0.612056	454.482697
8431.801196	1.607725	0.612056	1978.605591
8431.802249	1.596152	0.612056	3659.354004
8431.803186	1.552357	0.612056	5113.912598
8431.804052	1.511429	0.612056	6422.810547
8431.805119	1.464661	0.612056	7985.603516
8431.806124	1.422257	0.612056	9414.971680
8431.807008	1.386130	0.612056	10640.310547
8431.807995	1.348579	0.612056	11971.358398
8431.809043	1.308135	0.612056	13342.283203
8431.809958	0.836517	0.612056	14107.696289
8431.810819	0.102675	0.612056	14196.098633
8431.811908	0.085653	0.612056	14289.375000
8431.812894	0.085620	0.612056	14373.796875
8431.813765	0.085514	0.612056	14448.279297
8431.814748	0.085620	0.612056	14532.444336
8431.815799	0.085646	0.612056	14622.458008
8431.816697	0.085642	0.612056	14699.364258
8431.817559	0.085642	0.612056	14773.187500
8431.818657	0.085774	0.612056	14867.367187
8431.819634	0.085613	0.612056	14951.010742
8432.854492	1.129574	0.615291	516.215332
8432.855415	1.613427	0.615291	2005.408081
8432.856291	1.603528	0.615291	3410.098389
8432.857205	1.561567	0.615291	4837.371094
8432.858171	1.517153	0.615291	6302.941406
8432.859097	1.475145	0.615291	7668.925781
8432.859964	1.437539	0.615291	8915.272461
8432.860933	1.398651	0.615291	10270.565430
8432.861841	1.361309	0.615291	11506.633789
8432.862767	1.325955	0.615291	12734.467773
8432.863648	1.236346	0.615291	13823.689453
8432.864751	0.205096	0.615291	14049.911133
8432.865792	0.085602	0.615291	14139.022461
8432.866678	0.085587	0.615291	14214.852539
8432.867558	0.085620	0.615291	14290.198242
8432.868659	0.085675	0.615291	14384.526367
8432.869613	0.085576	0.615291	14466.166016
8432.870483	0.085576	0.615291	14540.617187
8432.871529	0.085646	0.615291	14630.203125
8432.872550	0.085580	0.615291	14717.580078
8432.873445	0.085503	0.615291	14794.105469
8433.877964	1.095527	0.629458	477.649902
8433.878827	1.608197	0.629458	1865.524048
8433.879795	1.602374	0.629458	3416.622314
8433.880748	1.558920	0.629458	4902.272461
8433.881642	1.517267	0.629458	6258.708984
8433.882543	1.476559	0.629458	7589.088867
8433.883485	1.435521	0.629458	8941.349609
8433.884438	1.397032	0.629458	10272.721680
8433.885328	1.361891	0.629458	11484.804687
8433.886257	1.325907	0.629458	12716.572266
8433.887215	1.247941	0.629458	13912.099609
8433.888146	0.254301	0.629458	14148.853516
8433.889009	0.085587	0.629458	14222.714844
8433.889965	0.085499	0.629458	14304.452148
8433.890869	0.085565	0.629458	14381.802734
8433.891792	0.085620	0.629458	14460.830078
8433.892661	0.085631	0.629458	14535.243164
8433.893629	0.085540	0.629458	14618.045898
8433.894583	0.085584	0.629458	14699.692383
8433.895472	0.085540	0.629458	14775.737305
8433.896383	0.085532	0.629458	14853.657227
8434.930166	1.150455	0.642913	551.068115
8434.931042	1.612885	0.642913	1963.954956
8434.931911	1.602898	0.642913	3356.873291
8434.932902	1.558942	0.642913	4901.784180
8434.933827	1.516230	0.642913	6304.297363
8434.934721	1.475801	0.642913	7623.663086
8434.935641	1.437206	0.642913	8945.892578
8434.936593	1.397926	0.642913	10276.718750
8434.937524	1.361151	0.642913	11543.950195
8434.938392	1.327189	0.642913	12695.950195
8434.939365	1.254598	0.642913	13916.674805
8434.940312	0.246171	0.642913	14149.798828
8434.941240	0.085649	0.642913	14229.281250
8434.942096	0.085543	0.642913	14302.505859
8434.943038	0.085547	0.642913	14383.090820
8434.943995	0.085620	0.642913	14465.029297
8434.944889	0.085646	0.642913	14541.596680
8434.945802	0.085609	0.642913	14619.757812
8434.946736	0.085616	0.642913	14699.723633
8434.947670	0.085646	0.642913	14779.716797
8434.948557	0.085646	0.642913	14855.684570
8435.955270	1.215568	0.656324	686.795715
8435.956184	1.617437	0.656324	2165.132812
8435.957090	1.597595	0.656324	3612.554199
8435.957967	1.555818	0.656324	4977.006348
8435.958997	1.509097	0.656324	6531.375977
8435.959895	1.468997	0.656324	7850.535156
8435.960772	1.431874	0.656324	9106.288086
8435.961739	1.393000	0.656324	10453.319336
8435.962704	1.354486	0.656324	11760.398437
8435.963625	1.319249	0.656324	12975.426758
8435.964497	1.172399	0.656324	13997.758789
8435.965536	0.148066	0.656324	14151.599609
8435.966415	0.085591	0.656324	14226.833984
8435.967286	0.085609	0.656324	14301.399414
8435.968207	0.085660	0.656324	14380.292969
8435.969196	0.085668	0.656324	14465.018555
8435.970117	0.085598	0.656324	14543.854492
8435.970996	0.085616	0.656324	14619.111328
8435.972032	0.085701	0.656324	14707.897461
8435.972931	0.085664	0.656324	14784.909180
8435.973844	0.085631	0.656324	14863.090820
8437.006779	1.084567	0.652561	457.687164
8437.007831	1.615016	0.652561	2156.683838
8437.008848	1.593420	0.652561	3777.192383
8437.009736	1.551654	0.652561	5155.061035
8437.010686	1.507994	0.652561	6587.655762
8437.011746	1.460881	0.652561	8136.189941
8437.012670	1.421682	0.652561	9449.824219
8437.013548	1.386032	0.652561	10666.759766
8437.014523	1.348711	0.652561	11981.752930
8437.015546	1.309336	0.652561	13321.203125
8437.016428	0.903314	0.652561	14117.925781
8437.017291	0.110226	0.652561	14213.050781
8437.018338	0.085616	0.652561	14302.691406
8437.019279	0.085587	0.652561	14383.228516
8437.020151	0.085613	0.652561	14457.882812
8437.021092	0.085697	0.652561	14538.523437
8437.022121	0.085591	0.652561	14626.596680
8437.023014	0.085646	0.652561	14703.078125
8437.023876	0.085594	0.652561	14776.860352
8437.024928	0.085624	0.652561	14866.936523
8437.025881	0.085573	0.652561	14948.487305
8438.031902	1.173505	0.658080	596.140320
8438.032784	1.614756	0.658080	2020.354980
8438.033672	1.600605	0.658080	3441.692627
8438.034772	1.550969	0.658080	5147.758789
8438.035732	1.507017	0.658080	6594.494629
8438.036597	1.468037	0.658080	7864.346680
8438.037639	1.424634	0.658080	9348.815430
8438.038662	1.382944	0.658080	10763.567383
8438.039542	1.348293	0.658080	11950.065430
8438.040488	1.312335	0.658080	13191.534180
8438.041570	0.764180	0.658080	14018.376953
8438.042504	0.093032	0.658080	14105.269531
8438.043359	0.085635	0.658080	14178.487305
8438.044396	0.085657	0.658080	14267.313477
8438.045421	0.085598	0.658080	14355.051758
8438.046307	0.085620	0.658080	14430.911133
8438.047258	0.085682	0.658080	14512.395508
8438.048311	0.085642	0.658080	14602.576172
8438.049233	0.085627	0.658080	14681.524414
8438.050103	0.085642	0.658080	14756.033203
8438.051170	0.085693	0.658080	14847.467773
8439.083446	1.097824	0.675043	459.988037
8439.084540	1.616173	0.675043	2228.081543
8439.085513	1.592607	0.675043	3777.688477
8439.086401	1.551614	0.675043	5155.521484
8439.087403	1.505621	0.675043	6664.154297
8439.088462	1.459219	0.675043	8209.466797
8439.089355	1.420803	0.675043	9478.244141
8439.090243	1.383860	0.675043	10707.111328
8439.091325	1.342808	0.675043	12160.029297
8439.092284	1.306512	0.675043	13412.974609
8439.093166	0.824205	0.675043	14139.923828
8439.094196	0.093054	0.675043	14235.769531
8439.095208	0.085573	0.675043	14322.369141
8439.096097	0.085584	0.675043	14398.453125
8439.097024	0.085668	0.675043	14477.867187
8439.098069	0.085657	0.675043	14567.378906
8439.099002	0.085576	0.675043	14647.221680
8439.099861	0.085653	0.675043	14720.797852
8439.100901	0.085642	0.675043	14809.865234
8439.101931	0.085580	0.675043	14898.012695
8439.102807	0.085594	0.675043	14972.993164
8440.108999	1.093616	0.690286	475.722870
8440.109863	1.607955	0.690286	1864.996216
8440.110928	1.598734	0.690286	3567.647949
8440.111945	1.551603	0.690286	5145.627930
8440.112824	1.510986	0.690286	6473.785156
8440.113820	1.467122	0.690286	7935.038086
8440.114887	1.421982	0.690286	9452.292969
8440.115797	1.384395	0.690286	10712.091797
8440.116658	1.349231	0.690286	11873.779297
8440.117740	1.308827	0.690286	13289.929687
8440.118737	0.765326	0.690286	14052.959961
8440.119627	0.095394	0.690286	14137.861328
8440.120605	0.085704	0.690286	14221.680664
8440.121654	0.085712	0.690286	14311.591797
8440.122552	0.085635	0.690286	14388.492187
8440.123417	0.085620	0.690286	14462.553711
8440.124512	0.085701	0.690286	14556.395508
8440.125477	0.085594	0.690286	14638.994141
8440.126341	0.085627	0.690286	14712.976562
8440.127392	0.085763	0.690286	14803.113281
8440.128426	0.085701	0.690286	14891.727539
8441.161247	1.169963	0.694564	599.021301
8441.162188	1.616935	0.694564	2120.556885
8441.163048	1.600115	0.694564	3496.655518
8441.164110	1.551504	0.694564	5144.352539
8441.165141	1.504336	0.694564	6695.323242
8441.166012	1.464836	0.694564	7971.195801
8441.166984	1.424136	0.694564	9355.456055
8441.168040	1.381069	0.694564	10813.865234
8441.168957	1.345170	0.694564	12047.385742
8441.169834	1.310863	0.694564	13197.012695
8441.170913	0.752249	0.694564	14008.688477
8441.171905	0.090070	0.694564	14098.037109
8441.172794	0.085594	0.694564	14174.130859
8441.173773	0.085638	0.694564	14257.970703
8441.174812	0.085734	0.694564	14347.047852
8441.175717	0.085598	0.694564	14424.514648
8441.176579	0.085613	0.694564	14498.312500
8441.177663	0.085719	0.694564	14591.231445
8441.178628	0.085620	0.694564	14673.854492
8441.179512	0.085726	0.694564	14749.636719
8441.180536	0.085693	0.694564	14837.386719
8442.185662	1.093744	0.702262	465.934906
8442.186531	1.607776	0.702262	1863.092163
8442.187651	1.595837	0.702262	3650.430176
8442.188613	1.551709	0.702262	5143.174316
8442.189487	1.511052	0.702262	6463.833984
8442.190538	1.464525	0.702262	8003.049805
8442.191580	1.420613	0.702262	9483.328125
8442.192477	1.383834	0.702262	10724.626953
8442.193417	1.347396	0.702262	11991.179687
8442.194477	1.306824	0.702262	13376.413086
8442.195414	0.770878	0.702262	14098.725586
8442.196273	0.097401	0.702262	14182.393555
8442.197339	0.085712	0.702262	14273.761719
8442.198349	0.085631	0.702262	14360.249023
8442.199228	0.085609	0.702262	14435.499023
8442.200192	0.085631	0.702262	14518.047852
8442.201231	0.085715	0.702262	14607.106445
8442.202154	0.085620	0.702262	14686.133789
8442.203012	0.085701	0.702262	14759.665039
8442.204065	0.085708	0.702262	14849.916016
8442.205070	0.085580	0.702262	14935.923828
8443.237827	1.098644	0.724410	476.811401
8443.238694	1.608409	0.724410	1871.302368
8443.239677	1.601968	0.724410	3446.036621
8443.240624	1.558594	0.724410	4922.024902
8443.241522	1.516919	0.724410	6284.217773
8443.242451	1.475636	0.724410	7655.083496
8443.243395	1.434844	0.724410	9009.576172
8443.244315	1.396556	0.724410	10294.408203
8443.245196	1.361869	0.724410	11494.214844
8443.246108	1.325779	0.724410	12703.325195
8443.247085	1.243008	0.724410	13917.744141
8443.247984	0.257633	0.724410	14149.356445
8443.248898	0.085796	0.724410	14227.773437
8443.249853	0.085646	0.724410	14309.565430
8443.250773	0.085598	0.724410	14388.315430
8443.251635	0.085638	0.724410	14462.135742
8443.252586	0.085536	0.724410	14543.480469
8443.253525	0.085594	0.724410	14623.853516
8443.254459	0.085616	0.724410	14703.819336
8443.255316	0.085649	0.724410	14777.220703
8443.256251	0.085613	0.724410	14857.268555
8444.262386	1.120188	0.736181	532.089294
8444.263276	1.612068	0.736181	1966.829590
8444.264138	1.603781	0.736181	3349.288330
8444.265103	1.559619	0.736181	4854.320801
8444.266042	1.515531	0.736181	6277.404297
8444.266976	1.474178	0.736181	7654.287109
8444.267845	1.436151	0.736181	8902.302734
8444.268802	1.397153	0.736181	10239.378906
8444.269754	1.360298	0.736181	11534.382812
8444.270650	1.325636	0.736181	12722.152344
8444.271566	1.263622	0.736181	13879.629883
8444.272519	0.272684	0.736181	14139.498047
8444.273437	0.085741	0.736181	14218.208008
8444.274297	0.085642	0.736181	14291.860352
8444.275223	0.085675	0.736181	14371.195312
8444.276163	0.085627	0.736181	14451.685547
8444.277081	0.085693	0.736181	14530.351562
8444.277945	0.085657	0.736181	14604.359375
8444.278922	0.085635	0.736181	14688.024414
8444.279863	0.085704	0.736181	14768.671875
8444.280753	0.085642	0.736181	14844.893555
8445.316061	1.113988	0.742066	512.434509
8445.316947	1.611962	0.742066	1940.632568
8445.317888	1.602583	0.742066	3448.663086
8445.318819	1.559593	0.742066	4900.644531
8445.319697	1.518285	0.742066	6233.698730
8445.320586	1.476973	0.742066	7546.727539
8445.321615	1.434770	0.742066	9023.106445
8445.322523	1.396608	0.742066	10291.226562
8445.323409	1.361415	0.742066	11497.440430
8445.324279	1.326680	0.742066	12651.651367
8445.325274	1.246674	0.742066	13892.091797
8445.326194	0.260284	0.742066	14131.553711
8445.327064	0.085756	0.742066	14206.161133
8445.328080	0.085635	0.742066	14293.166016
8445.328976	0.085543	0.742066	14369.812500
8445.329898	0.085620	0.742066	14448.753906
8445.330761	0.085653	0.742066	14522.672852
8445.331749	0.085627	0.742066	14607.272461
8445.332670	0.085554	0.742066	14686.068359
8445.333526	0.085488	0.742066	14759.246094
8445.334575	0.085613	0.742066	14849.053711
8446.339514	1.080102	0.757454	456.883331
8446.340549	1.613192	0.757454	2126.537109
8446.341514	1.596482	0.757454	3667.142090
8446.342385	1.555129	0.757454	5021.659668
8446.343252	1.512938	0.757454	6333.376953
8446.344360	1.466012	0.757454	7957.718262
8446.345264	1.427205	0.757454	9247.911133
8446.346141	1.391470	0.757454	10468.230469
8446.347175	1.351058	0.757454	11865.224609
8446.348155	1.313511	0.757454	13152.464844
8446.349033	1.053915	0.757454	14077.801758
8446.349901	0.141588	0.757454	14200.700195
8446.351007	0.085631	0.757454	14295.408203
8446.351894	0.085616	0.757454	14371.349609
8446.352758	0.085613	0.757454	14445.319336
8446.353761	0.085624	0.757454	14531.200195
8446.354754	0.085653	0.757454	14616.253906
8446.355643	0.085602	0.757454	14692.353516
8446.356498	0.085682	0.757454	14765.612305
8446.357548	0.085635	0.757454	14855.529297
8446.358458	0.085576	0.757454	14933.403320
8447.392194	1.095234	0.758143	470.950775
8447.393198	1.610837	0.758143	2088.231445
8447.394236	1.594299	0.758143	3743.114258
8447.395133	1.551702	0.758143	5134.990723
8447.395997	1.510140	0.758143	6439.751953
8447.397100	1.462778	0.758143	8053.196289
8447.398074	1.422048	0.758143	9438.271484
8447.398942	1.386332	0.758143	10641.607422
8447.400022	1.344448	0.758143	12093.611328
8447.401061	1.305216	0.758143	13449.730469
8447.401952	0.765223	0.758143	14131.544922
8447.402893	0.096401	0.758143	14222.258789
8447.403953	0.085668	0.758143	14313.066406
8447.404875	0.085587	0.758143	14391.977539
8447.405734	0.085642	0.758143	14465.543945
8447.406748	0.085712	0.758143	14552.456055
8447.407772	0.085616	0.758143	14640.126953
8447.408660	0.085598	0.758143	14716.137695
8447.409603	0.085734	0.758143	14796.984375
8447.410661	0.085609	0.758143	14887.558594
8447.411588	0.085565	0.758143	14966.877930
8448.416246	1.166129	0.776605	549.246826
8448.417175	1.614287	0.776605	2048.919434
8448.418052	1.601938	0.776605	3453.819336
8448.418988	1.558799	0.776605	4912.854980
8448.419949	1.514513	0.776605	6368.301758
8448.420865	1.472673	0.776605	7717.270508
8448.421748	1.434686	0.776605	8984.098633
8448.422698	1.396095	0.776605	10310.388672
8448.423656	1.358782	0.776605	11612.101562
8448.424557	1.323578	0.776605	12804.645508
8448.425461	1.254430	0.776605	13938.650391
8448.426396	0.229501	0.776605	14153.233398
8448.427347	0.085514	0.776605	14234.557617
8448.428236	0.085664	0.776605	14310.712891
8448.429166	0.085605	0.776605	14390.326172
8448.430118	0.085529	0.776605	14471.749023
8448.431044	0.085562	0.776605	14550.978516
8448.431902	0.085602	0.776605	14624.424805
8448.432933	0.085638	0.776605	14712.717773
8448.434009	0.085631	0.776605	14804.856445
8448.434912	0.085536	0.776605	14882.095703
8449.469434	1.129186	0.766474	532.975708
8449.470323	1.612130	0.766474	1966.159302
8449.471187	1.603817	0.766474	3351.857422
8449.472155	1.560641	0.766474	4862.557617
8449.473072	1.516652	0.766474	6253.327148
8449.473977	1.475984	0.766474	7589.092773
8449.474842	1.438037	0.766474	8832.995117
8449.475816	1.398622	0.766474	10195.252930
8449.476767	1.361722	0.766474	11490.250977
8449.477666	1.326526	0.766474	12682.797852
8449.478573	1.281145	0.766474	13844.796875
8449.479535	0.305746	0.766474	14138.924805
8449.480420	0.085800	0.766474	14214.857422
8449.481321	0.085536	0.766474	14291.924805
8449.482254	0.085540	0.766474	14371.733398
8449.483187	0.085569	0.766474	14451.569336
8449.484078	0.085668	0.766474	14527.899414
8449.484988	0.085554	0.766474	14605.753906
8449.485940	0.085551	0.766474	14687.198242
8449.486858	0.085605	0.766474	14765.784180
8449.487736	0.085664	0.766474	14840.997070
8450.493978	1.135334	0.797995	590.373901
8450.494887	1.615609	0.797995	2058.962646
8450.495804	1.599229	0.797995	3525.455078
8450.496687	1.558279	0.797995	4901.415039
8450.497682	1.511733	0.797995	6405.589844
8450.498631	1.469337	0.797995	7799.990723
8450.499552	1.430387	0.797995	9117.376953
8450.500421	1.394033	0.797995	10328.791992
8450.501400	1.356830	0.797995	11657.128906
8450.502362	1.320176	0.797995	12927.137695
8450.503256	1.188940	0.797995	13990.050781
8450.504159	0.203298	0.797995	14173.628906
8450.505098	0.085584	0.797995	14253.992187
8450.506021	0.085745	0.797995	14333.134766
8450.506883	0.085598	0.797995	14406.919922
8450.507886	0.085598	0.797995	14492.774414
8450.508815	0.085624	0.797995	14572.319336
8450.509715	0.085638	0.797995	14649.393555
8450.510576	0.085605	0.797995	14723.099609
8450.511547	0.085627	0.797995	14806.244141
8450.512487	0.085635	0.797995	14886.741211
8451.546578	1.109378	0.804207	493.673004
8451.547606	1.616613	0.804207	2155.550781
8451.548494	1.598269	0.804207	3574.813721
8451.549362	1.557927	0.804207	4927.094727
8451.550355	1.512305	0.804207	6428.813477
8451.551276	1.469982	0.804207	7782.666504
8451.552196	1.431295	0.804207	9099.458008
8451.553077	1.394297	0.804207	10327.833984
8451.554119	1.354449	0.804207	11739.169922
8451.555013	1.319766	0.804207	12919.040039
8451.555895	1.217260	0.804207	13992.663086
8451.556875	0.206741	0.804207	14195.268555
8451.557825	0.085587	0.804207	14276.576172
8451.558742	0.085616	0.804207	14355.086914
8451.559611	0.085638	0.804207	14429.506836
8451.560638	0.085594	0.804207	14517.412109
8451.561523	0.085594	0.804207	14593.163086
8451.562389	0.085624	0.804207	14667.313477
8451.563313	0.085627	0.804207	14746.433594
8451.564301	0.085620	0.804207	14831.026367
8451.565199	0.085620	0.804207	14907.913086
8452.572096	1.113413	0.818471	478.767578
8452.573206	1.616803	0.818471	2273.418945
8452.574180	1.591307	0.818471	3823.352295
8452.575064	1.550006	0.818471	5193.557617
8452.576074	1.503827	0.818471	6712.422852
8452.577122	1.457952	0.818471	8240.356445
8452.578021	1.419437	0.818471	9516.430664
8452.578927	1.382047	0.818471	10768.565430
8452.580010	1.340720	0.818471	12220.565430
8452.580961	1.304733	0.818471	13461.366211
8452.581829	0.792565	0.818471	14149.312500
8452.582865	0.091864	0.818471	14244.483398
8452.583887	0.085635	0.818471	14332.001953
8452.584769	0.085653	0.818471	14407.547852
8452.585702	0.085664	0.818471	14487.472656
8452.586759	0.085748	0.818471	14578.108398
8452.587691	0.085620	0.818471	14657.906250
8452.588556	0.085627	0.818471	14731.973633
8452.589495	0.085701	0.818471	14812.446289
8452.590537	0.085660	0.818471	14901.704102
8452.591429	0.085646	0.818471	14978.100586
8453.621174	1.083658	0.831330	455.136505
8453.622148	1.611680	0.831330	2024.912476
8453.623074	1.600367	0.831330	3506.852539
8453.624001	1.557645	0.831330	4950.789551
8453.624868	1.516915	0.831330	6265.955078
8453.625919	1.470135	0.831330	7811.067383
8453.626980	1.426073	0.831330	9324.130859
8453.627870	1.388730	0.831330	10560.100586
8453.628743	1.352571	0.831330	11740.894531
8453.629858	1.311599	0.831330	13203.327148
8453.630828	0.897733	0.831330	14074.127930
8453.631701	0.108754	0.831330	14169.070312
8453.632718	0.085613	0.831330	14256.138672
8453.633756	0.085605	0.831330	14344.997070
8453.634642	0.085620	0.831330	14420.856445
8453.635572	0.085635	0.831330	14500.497070
8453.636629	0.085631	0.831330	14591.008789
8453.637569	0.085609	0.831330	14671.481445
8453.638436	0.085690	0.831330	14745.774414
8453.639495	0.085748	0.831330	14836.582031
8453.640502	0.085686	0.831330	14922.868164
8454.651906	1.129764	0.840414	546.805969
8454.652793	1.612914	0.840414	1977.460449
8454.653671	1.602880	0.840414	3384.788818
8454.654587	1.561392	0.840414	4815.023437
8454.655544	1.516934	0.840414	6266.729004
8454.656483	1.474263	0.840414	7651.061523
8454.657362	1.436499	0.840414	8913.744141
8454.658361	1.394410	0.840414	10306.759766
8454.659323	1.357332	0.840414	11612.512695
8454.660255	1.321794	0.840414	12844.424805
8454.661121	1.225964	0.840414	13906.110352
8454.662100	0.223228	0.840414	14124.650391
8454.663024	0.085536	0.840414	14203.685547
8454.663884	0.085616	0.840414	14277.315430
8454.664822	0.085624	0.840414	14357.630859
8454.665757	0.085565	0.840414	14437.634766
8454.666682	0.085576	0.840414	14516.792969
8454.667546	0.085616	0.840414	14590.765625
8454.668510	0.085587	0.840414	14673.271484
8454.669463	0.085631	0.840414	14754.877930
8454.670351	0.085594	0.840414	14830.885742
8455.697900	1.147518	0.844023	534.743530
8455.698791	1.612306	0.844023	1971.308105
8455.699669	1.603352	0.844023	3379.051270
8455.700580	1.561468	0.844023	4801.548828
8455.701556	1.516589	0.844023	6281.740234
8455.702483	1.474768	0.844023	7648.850098
8455.703350	1.437019	0.844023	8894.746094
8455.704326	1.397959	0.844023	10259.154297
8455.705285	1.360572	0.844023	11563.943359
8455.706176	1.325240	0.844023	12744.732422
8455.707055	1.270649	0.844023	13861.632812
8455.708002	0.275083	0.844023	14122.136719
8455.708950	0.085624	0.844023	14203.307617
8455.709841	0.085624	0.844023	14279.598633
8455.710749	0.085631	0.844023	14357.351562
8455.711708	0.085594	0.844023	14439.436523
8455.712599	0.085624	0.844023	14515.727539
8455.713459	0.085598	0.844023	14589.341797
8455.714422	0.085635	0.844023	14671.807617
8455.715377	0.085565	0.844023	14753.522461
8455.716251	0.085616	0.844023	14828.351562
8456.730573	1.098351	0.863774	483.274384
8456.731452	1.608739	0.863774	1897.355957
8456.732325	1.605374	0.863774	3298.847168
8456.733276	1.563215	0.863774	4785.464844
8456.734214	1.518490	0.863774	6209.808594
8456.735132	1.476742	0.863774	7565.457520
8456.736016	1.438846	0.863774	8837.397461
8456.736965	1.399688	0.863774	10165.701172
8456.737916	1.362436	0.863774	11461.377930
8456.738809	1.327734	0.863774	12647.044922
8456.739765	1.260381	0.863774	13851.968750
8456.740727	0.262251	0.863774	14104.253906
8456.741654	0.085657	0.863774	14183.657227
8456.742527	0.085638	0.863774	14258.419922
8456.743477	0.085613	0.863774	14339.751953
8456.744414	0.085627	0.863774	14419.985352
8456.745332	0.085616	0.863774	14498.581055
8456.746188	0.085671	0.863774	14571.916016
8456.747116	0.085602	0.863774	14651.354492
8456.748073	0.085664	0.863774	14733.334961
8456.748966	0.085573	0.863774	14809.750977
8457.774543	1.114570	0.870316	491.525543
8457.775410	1.608746	0.870316	1886.308594
8457.776426	1.600356	0.870316	3512.270752
8457.777335	1.557034	0.870316	4927.614258
8457.778253	1.514875	0.870316	6318.270020
8457.779133	1.474153	0.870316	7615.524414
8457.780161	1.431482	0.870316	9087.087891
8457.781057	1.394568	0.870316	10336.621094
8457.781934	1.360272	0.870316	11529.580078
8457.782914	1.322988	0.870316	12826.108398
8457.783867	1.197261	0.870316	13967.097656
8457.784797	0.196190	0.870316	14149.554687
8457.785660	0.085576	0.870316	14223.407227
8457.786690	0.085646	0.870316	14311.622070
8457.787568	0.085598	0.870316	14386.777344
8457.788436	0.085649	0.870316	14461.121094
8457.789360	0.085701	0.870316	14540.308594
8457.790353	0.085580	0.870316	14625.289062
8457.791281	0.085649	0.870316	14704.771484
8457.792155	0.085660	0.870316	14779.638672
8457.793192	0.085609	0.870316	14868.415039
8458.808878	1.195063	0.887211	627.408325
8458.809919	1.618352	0.887211	2312.112793
8458.810814	1.593560	0.887211	3738.348633
8458.811764	1.549655	0.887211	5210.520508
8458.812823	1.500311	0.887211	6799.350098
8458.813759	1.459102	0.887211	8165.069336
8458.814623	1.422114	0.887211	9393.776367
8458.815695	1.379290	0.887211	10872.375000
8458.816710	1.339907	0.887211	12232.380859
8458.817601	1.306091	0.887211	13396.108398
8458.818469	0.827065	0.887211	14114.000977
8458.819527	0.092589	0.887211	14211.959961
8458.820441	0.085741	0.887211	14290.327148
8458.821315	0.085697	0.887211	14365.226562
8458.822260	0.085646	0.887211	14446.162109
8458.823280	0.085704	0.887211	14533.580078
8458.824171	0.085756	0.887211	14609.988281
8458.825035	0.085679	0.887211	14684.014648
8458.826100	0.085715	0.887211	14775.301758
8458.827049	0.085693	0.887211	14856.625000
8458.827925	0.085781	0.887211	14931.769531
8459.851817	1.157380	0.884282	619.198486
8459.852869	1.617469	0.884282	2320.776367
8459.853783	1.592109	0.884282	3775.964355
8459.854652	1.550072	0.884282	5122.977051
8459.855742	1.501260	0.884282	6759.350098
8459.856743	1.456952	0.884282	8217.758789
8459.857620	1.420151	0.884282	9463.231445
8459.858609	1.380385	0.884282	10828.431641
8459.859665	1.339845	0.884282	12243.307617
8459.860553	1.304916	0.884282	13402.073242
8459.861432	0.763894	0.884282	14073.536133
8459.862530	0.089326	0.884282	14171.616211
8459.863501	0.085584	0.884282	14254.717773
8459.864368	0.085620	0.884282	14328.950195
8459.865399	0.085778	0.884282	14417.386719
8459.866444	0.085701	0.884282	14506.944336
8459.867335	0.085642	0.884282	14583.250977
8459.868249	0.085682	0.884282	14661.564453
8459.869318	0.085664	0.884282	14753.139648
8459.870264	0.085664	0.884282	14834.177734
8459.871127	0.085668	0.884282	14908.109375
8460.886970	1.094454	0.907896	460.765259
8460.887957	1.612401	0.907896	2052.205078
8460.888879	1.599514	0.907896	3526.957031
8460.889760	1.558579	0.907896	4900.065430
8460.890680	1.516154	0.907896	6294.926758
8460.891639	1.472922	0.907896	7707.458984
8460.892574	1.432936	0.907896	9047.253906
8460.893453	1.396743	0.907896	10274.991211
8460.894376	1.359679	0.907896	11529.974609
8460.895337	1.322754	0.907896	12801.140625
8460.896271	1.242458	0.907896	13961.596680
8460.897139	0.255040	0.907896	14182.971680
8460.898106	0.085635	0.907896	14265.780273
8460.899031	0.085657	0.907896	14345.012695
8460.899893	0.085642	0.907896	14418.835937
8460.900864	0.085712	0.907896	14502.061523
8460.901760	0.085620	0.907896	14578.777344
8460.902674	0.085627	0.907896	14657.041016
8460.903548	0.085620	0.907896	14731.873047
8460.904517	0.085660	0.907896	14814.877930
8460.905463	0.085635	0.907896	14895.888672
8461.931004	1.148833	0.915095	552.588684
8461.931893	1.612328	0.915095	1985.947998
8461.932753	1.602686	0.915095	3364.257568
8461.933705	1.559462	0.915095	4848.865234
8461.934664	1.515374	0.915095	6302.108398
8461.935566	1.474299	0.915095	7631.926270
8461.936466	1.436202	0.915095	8924.508789
8461.937412	1.397069	0.915095	10246.135742
8461.938347	1.360206	0.915095	11517.928711
8461.939238	1.325940	0.915095	12699.340820
8461.940168	1.260212	0.915095	13871.337891
8461.941141	0.258929	0.915095	14123.276367
8461.942062	0.085591	0.915095	14202.105469
8461.942920	0.085558	0.915095	14275.513672
8461.943870	0.085609	0.915095	14356.842773
8461.944812	0.085580	0.915095	14437.458984
8461.945708	0.085704	0.915095	14514.250000
8461.946568	0.085587	0.915095	14587.854492
8461.947537	0.085584	0.915095	14670.785156
8461.948485	0.085584	0.915095	14751.917969
8461.949374	0.085675	0.915095	14828.083008
8462.963655	1.093971	0.925613	473.689453
8462.964527	1.608252	0.925613	1876.085083
8462.965390	1.605937	0.925613	3262.009277
8462.966379	1.560883	0.925613	4805.722168
8462.967310	1.517344	0.925613	6218.369141
8462.968238	1.475900	0.925613	7588.003906
8462.969110	1.437524	0.925613	8841.525391
8462.970104	1.397856	0.925613	10230.995117
8462.971034	1.361451	0.925613	11497.144531
8462.971896	1.327386	0.925613	12641.351562
8462.972888	1.256356	0.925613	13887.657227
8462.973789	0.276046	0.925613	14136.375000
8462.974704	0.085704	0.925613	14214.794922
8462.975583	0.085737	0.925613	14290.158203
8462.976578	0.085580	0.925613	14375.310547
8462.977497	0.085638	0.925613	14454.012695
8462.978387	0.085573	0.925613	14530.171875
8462.979396	0.085708	0.925613	14616.651367
8462.980285	0.085638	0.925613	14692.784180
8462.981201	0.085613	0.925613	14771.205078
8462.982075	0.085682	0.925613	14846.091797
8464.009242	1.166854	0.937484	590.428284
8464.010137	1.614199	0.937484	2035.136719
8464.011007	1.601440	0.937484	3428.389893
8464.012014	1.554745	0.937484	4994.018066
8464.013012	1.508408	0.937484	6499.409180
8464.013909	1.468565	0.937484	7816.711426
8464.014778	1.430149	0.937484	9059.510742
8464.015888	1.386801	0.937484	10598.859375
8464.016809	1.350806	0.937484	11842.951172
8464.017678	1.317169	0.937484	12987.571289
8464.018776	0.909108	0.937484	13985.771484
8464.019744	0.100455	0.937484	14083.012695
8464.020622	0.085664	0.937484	14158.225586
8464.021500	0.085715	0.937484	14233.483398
8464.022598	0.085616	0.937484	14327.490234
8464.023486	0.085569	0.937484	14403.475586
8464.024347	0.085657	0.937484	14477.225586
8464.025417	0.085693	0.937484	14568.917969
8464.026377	0.085605	0.937484	14651.099609
8464.027295	0.085649	0.937484	14729.725586
8464.028155	0.085660	0.937484	14803.393555
8465.040311	1.079117	0.957452	455.387543
8465.041306	1.607666	0.957452	2055.015137
8465.042354	1.593695	0.957452	3725.207520
8465.043268	1.550841	0.957452	5142.676270
8465.044131	1.509228	0.957452	6445.140625
8465.045208	1.462299	0.957452	8020.036133
8465.046202	1.420261	0.957452	9431.775391
8465.047093	1.384340	0.957452	10665.221680
8465.048093	1.346016	0.957452	12011.237305
8465.049142	1.306095	0.957452	13381.331055
8465.050050	0.795732	0.957452	14103.856445
8465.050914	0.098163	0.957452	14188.668945
8465.052029	0.085745	0.957452	14284.274414
8465.052992	0.085649	0.957452	14366.754883
8465.053857	0.085671	0.957452	14440.860352
8465.054907	0.085741	0.957452	14530.888672
8465.055937	0.085638	0.957452	14619.096680
8465.056829	0.085668	0.957452	14695.512695
8465.057747	0.085682	0.957452	14774.168945
8465.058788	0.085726	0.957452	14863.410156
8465.059738	0.085627	0.957452	14944.755859
8466.088427	1.153173	0.953424	535.072083
8466.089318	1.612156	0.953424	1971.502930
8466.090186	1.602327	0.953424	3362.322266
8466.091160	1.558539	0.953424	4880.338867
8466.092119	1.514634	0.953424	6332.872559
8466.093013	1.474003	0.953424	7650.630859
8466.093919	1.435752	0.953424	8951.421875
8466.094879	1.396410	0.953424	10291.975586
8466.095804	1.359961	0.953424	11549.939453
8466.096678	1.325907	0.953424	12708.782227
8466.097642	1.257623	0.953424	13921.130859
8466.098589	0.242743	0.953424	14151.008789
8466.099494	0.085532	0.953424	14228.415039
8466.100372	0.085649	0.953424	14303.615234
8466.101469	0.085712	0.953424	14397.640625
8466.102496	0.085624	0.953424	14485.576172
8466.103384	0.085624	0.953424	14561.610352
8466.104310	0.085668	0.953424	14640.938477
8466.105370	0.085686	0.953424	14731.765625
8466.106316	0.085624	0.953424	14812.765625
8466.107187	0.085624	0.953424	14887.343750
8467.118036	1.122971	0.975527	503.091095
8467.118917	1.610002	0.975527	1921.503174
8467.119859	1.601239	0.975527	3429.870117
8467.120820	1.557616	0.975527	4926.739258
8467.121746	1.514879	0.975527	6329.517578
8467.122614	1.475083	0.975527	7609.889648
8467.123592	1.434708	0.975527	9013.034180
8467.124507	1.395341	0.975527	10289.770508
8467.125426	1.359617	0.975527	11539.257812
8467.126302	1.324984	0.975527	12699.944336
8467.127281	1.231952	0.975527	13906.025391
8467.128236	0.231266	0.975527	14126.884766
8467.129128	0.085609	0.975527	14203.248047
8467.130039	0.085627	0.975527	14281.254883
8467.130993	0.085624	0.975527	14362.940430
8467.131883	0.085671	0.975527	14439.187500
8467.132788	0.085602	0.975527	14516.657227
8467.133719	0.085613	0.975527	14596.362305
8467.134667	0.085576	0.975527	14677.488281
8467.135546	0.085649	0.975527	14752.774414
8467.136456	0.085616	0.975527	14830.685547
8468.167616	1.090924	0.987423	468.006470
8468.168485	1.607358	0.987423	1864.800903
8468.169478	1.600902	0.987423	3454.496582
8468.170399	1.558352	0.987423	4889.738770
8468.171284	1.517234	0.987423	6232.490723
8468.172202	1.476573	0.987423	7587.985352
8468.173125	1.435697	0.987423	8913.133789
8468.174070	1.397292	0.987423	10233.575195
8468.174959	1.362242	0.987423	11444.608398
8468.175893	1.326786	0.987423	12683.826172
8468.176843	1.268101	0.987423	13888.521484
8468.177744	0.292291	0.987423	14151.875977
8468.178623	0.085840	0.987423	14227.329102
8468.179563	0.085690	0.987423	14307.876953
8468.180500	0.085573	0.987423	14388.058594
8468.181427	0.085609	0.987423	14467.417969
8468.182291	0.085690	0.987423	14541.454102
8468.183268	0.085646	0.987423	14625.129883
8468.184215	0.085616	0.987423	14706.208984
8468.185107	0.085638	0.987423	14782.598633
8468.186024	0.085653	0.987423	14861.142578
8469.195763	1.150796	1.003376	536.270874
8469.196642	1.611680	1.003376	1952.937256
8469.197520	1.603517	1.003376	3360.825195
8469.198512	1.558165	1.003376	4906.524902
8469.199440	1.514161	1.003376	6311.666504
8469.200366	1.473204	1.003376	7675.853516
8469.201237	1.435437	1.003376	8926.119141
8469.202269	1.393726	1.003376	10364.443359
8469.203161	1.358492	1.003376	11576.218750
8469.204042	1.324643	1.003376	12743.229492
8469.205013	1.202893	1.003376	13911.238281
8469.205988	0.204166	1.003376	14110.300781
8469.206904	0.085587	1.003376	14188.698242
8469.207766	0.085759	1.003376	14262.623047
8469.208788	0.085686	1.003376	14350.194336
8469.209682	0.085624	1.003376	14426.742187
8469.210560	0.085638	1.003376	14501.932617
8469.211446	0.085704	1.003376	14577.866211
8469.212495	0.085613	1.003376	14667.673828
8469.213385	0.085609	1.003376	14743.866211
8469.214264	0.085620	1.003376	14819.125977
8470.245383	1.153883	0.995170	575.787659
8470.246266	1.613178	0.995170	2000.223389
8470.247130	1.602550	0.995170	3384.826660
8470.248182	1.554683	0.995170	5020.352539
8470.249146	1.510232	0.995170	6476.216309
8470.250020	1.470688	0.995170	7761.598145
8470.250883	1.431702	0.995170	8997.156250
8470.252003	1.388851	0.995170	10552.669922
8470.252873	1.354028	0.995170	11730.674805
8470.253749	1.320418	0.995170	12887.360352
8470.254770	1.051344	0.995170	13960.782227
8470.255754	0.125479	0.995170	14084.252930
8470.256633	0.085616	0.995170	14159.509766
8470.257492	0.085785	0.995170	14233.199219
8470.258601	0.085712	0.995170	14328.253906
8470.259499	0.085584	0.995170	14405.107422
8470.260374	0.085657	0.995170	14480.056641
8470.261398	0.085774	0.995170	14567.888672
8470.262373	0.085657	0.995170	14651.404297
8470.263265	0.085613	0.995170	14727.770508
8470.264123	0.085686	0.995170	14801.289062
8471.274508	1.158754	1.022155	584.011841
8471.275517	1.617722	1.022155	2216.293457
8471.276414	1.595471	1.022155	3647.431152
8471.277399	1.550328	1.022155	5174.504883
8471.278455	1.501674	1.022155	6760.272461
8471.279365	1.460676	1.022155	8089.487793
8471.280232	1.422726	1.022155	9322.991211
8471.281339	1.379502	1.022155	10850.099609
8471.282317	1.341647	1.022155	12162.230469
8471.283184	1.308391	1.022155	13296.605469
8471.284215	0.738563	1.022155	14058.064453
8471.285252	0.089740	1.022155	14151.125000
8471.286137	0.085631	1.022155	14226.908203
8471.287019	0.085627	1.022155	14302.431641
8471.288105	0.085704	1.022155	14395.506836
8471.289063	0.085660	1.022155	14477.569336
8471.289921	0.085646	1.022155	14551.053711
8471.290925	0.085719	1.022155	14637.115234
8471.291966	0.085693	1.022155	14726.322266
8471.292852	0.085646	1.022155	14802.204102
8471.293765	0.085631	1.022155	14880.385742
8472.323578	1.122949	1.009047	531.154968
8472.324477	1.612072	1.009047	1980.407227
8472.325351	1.602583	1.009047	3381.064941
8472.326261	1.561498	1.009047	4802.027832
8472.327190	1.517336	1.009047	6211.633301
8472.328123	1.474724	1.009047	7587.550781
8472.329019	1.436928	1.009047	8875.038086
8472.329942	1.398530	1.009047	10165.881836
8472.330910	1.360851	1.009047	11483.185547
8472.331835	1.325186	1.009047	12708.982422
8472.332715	1.277047	1.009047	13832.784180
8472.333703	0.281345	1.009047	14110.752930
8472.334620	0.085686	1.009047	14189.327148
8472.335494	0.085675	1.009047	14264.207031
8472.336537	0.085631	1.009047	14353.520508
8472.337479	0.085616	1.009047	14434.170898
8472.338403	0.085551	1.009047	14513.219727
8472.339262	0.085660	1.009047	14586.801758
8472.340203	0.085584	1.009047	14667.335937
8472.341145	0.085598	1.009047	14747.969727
8472.342037	0.085715	1.009047	14824.427734
8473.353675	1.094557	1.041665	480.510437
8473.354550	1.608933	1.041665	1888.326904
8473.355454	1.603854	1.041665	3338.210693
8473.356417	1.560187	1.041665	4840.670410
8473.357352	1.516337	1.041665	6258.445312
8473.358226	1.476522	1.041665	7548.925781
8473.359136	1.436733	1.041665	8856.353516
8473.360098	1.397230	1.041665	10200.489258
8473.361030	1.361078	1.041665	11469.013672
8473.361913	1.326416	1.041665	12640.239258
8473.362892	1.254891	1.041665	13868.778320
8473.363854	0.261123	1.041665	14119.978516
8473.364747	0.085631	1.041665	14196.447266
8473.365656	0.085598	1.041665	14274.255859
8473.366610	0.085605	1.041665	14355.923828
8473.367538	0.085510	1.041665	14435.277344
8473.368401	0.085686	1.041665	14509.224609
8473.369328	0.085569	1.041665	14588.546875
8473.370268	0.085573	1.041665	14668.985352
8473.371182	0.085569	1.041665	14747.195312
8473.372060	0.085569	1.041665	14822.325195
8474.404294	1.086043	1.028536	466.998291
8474.405234	1.611998	1.028536	1982.276733
8474.406169	1.599349	1.028536	3477.668457
8474.407088	1.557488	1.028536	4909.000000
8474.407961	1.516256	1.028536	6232.691406
8474.408942	1.472992	1.028536	7677.696289
8474.409900	1.432617	1.028536	9050.143555
8474.410796	1.395161	1.028536	10300.208008
8474.411712	1.359884	1.028536	11545.861328
8474.412655	1.323318	1.028536	12793.750000
8474.413585	1.235555	1.028536	13942.816406
8474.414470	0.248547	1.028536	14162.781250
8474.415397	0.085726	1.028536	14242.250000
8474.416330	0.085598	1.028536	14322.113281
8474.417250	0.085631	1.028536	14400.893555
8474.418122	0.085649	1.028536	14475.580078
8474.419079	0.085635	1.028536	14557.532227
8474.420015	0.085682	1.028536	14637.730469
8474.420917	0.085576	1.028536	14714.919922
8474.421779	0.085635	1.028536	14788.737305
8474.422743	0.085609	1.028536	14871.264648
8475.456412	1.422257	0.752520	8864.928711
8475.459260	1.310607	0.752520	12597.536133
8475.460243	0.900011	0.752520	13482.247070
8475.461766	0.085624	0.752520	13612.652344
8475.462707	0.085573	0.752520	13693.175781
8475.463599	0.085587	0.752520	13769.519531
8475.464578	0.085675	0.752520	13853.395508
8475.465518	0.085631	0.752520	13933.888672
8475.466440	0.085646	0.752520	14012.854492
8475.467304	0.085605	0.752520	14086.817383
8475.468345	0.085708	0.752520	14176.039062
8475.469219	0.085635	0.752520	14250.883789
8475.470090	0.085602	0.752520	14325.443359
