time (s)	coil I (A)	last det (V)	int current (uC)
7304.890976	1.244696	0.166375	698.274475
7304.892018	1.628654	0.166375	2395.331543
7304.892908	1.601898	0.166375	3821.020996
7304.893854	1.557363	0.166375	5294.286621
7304.894907	1.508690	0.166375	6882.937500
7304.895852	0.503386	0.166375	7358.637695
7304.896713	0.087997	0.166375	7434.402832
7304.897750	0.085642	0.166375	7523.213867
7304.898765	0.085525	0.166375	7610.021484
7304.899650	0.085602	0.166375	7685.779297
7304.900612	0.085653	0.166375	7768.177734
7304.901677	0.085602	0.166375	7859.343750
7304.902586	0.085594	0.166375	7937.148926
7304.903452	0.085605	0.166375	8011.283203
7304.904526	0.085631	0.166375	8103.250977
7304.905521	0.085551	0.166375	8188.373535
7305.951710	1.111318	0.171318	510.095123
7305.952600	1.620769	0.171318	1952.579468
7305.953532	1.611632	0.171318	3454.620605
7305.954602	1.561857	0.171318	5125.807617
7305.955568	1.517109	0.171318	6591.334961
7305.956446	0.878917	0.171318	7363.024414
7305.957517	0.091681	0.171318	7461.214844
7305.958541	0.085547	0.171318	7548.814941
7305.959436	0.085594	0.171318	7625.421875
7305.960352	0.085558	0.171318	7703.792969
7305.961401	0.085587	0.171318	7793.573730
7305.962338	0.085613	0.171318	7873.792969
7305.963200	0.085576	0.171318	7947.559570
7305.964247	0.085649	0.171318	8037.234375
7305.965262	0.085565	0.171318	8124.083008
7305.966136	0.085514	0.171318	8198.822266
7306.963963	1.165313	0.170766	562.845947
7306.964836	1.621608	0.170766	1978.509399
7306.965758	1.611215	0.170766	3464.049316
7306.966713	1.566991	0.170766	4960.525391
7306.967643	1.523793	0.170766	6377.652344
7306.968532	1.068413	0.170766	7327.471680
7306.969502	0.110046	0.170766	7434.216797
7306.970446	0.085503	0.170766	7514.931641
7306.971350	0.085598	0.170766	7592.312500
7306.972209	0.085532	0.170766	7665.784668
7306.973173	0.085499	0.170766	7748.206055
7306.974123	0.085565	0.170766	7829.493164
7306.974997	0.085580	0.170766	7904.290039
7306.975902	0.085514	0.170766	7981.680176
7306.976836	0.085514	0.170766	8061.550293
7306.977761	0.085481	0.170766	8140.620117
7308.025821	1.140787	0.169638	514.495117
7308.026703	1.620033	0.169638	1943.364258
7308.027567	1.613174	0.169638	3337.146484
7308.028617	1.566555	0.169638	4982.029297
7308.029504	1.524730	0.169638	6334.464844
7308.030435	1.067999	0.169638	7328.771973
7308.031300	0.123021	0.169638	7435.185547
7308.032290	0.085554	0.169638	7519.884277
7308.033188	0.085529	0.169638	7596.688965
7308.034062	0.085613	0.169638	7671.514648
7308.035068	0.085587	0.169638	7757.615234
7308.035975	0.085536	0.169638	7835.196289
7308.036890	0.085587	0.169638	7913.508301
7308.037757	0.085576	0.169638	7987.702637
7308.038748	0.085492	0.169638	8072.425293
7308.039668	0.085536	0.169638	8151.118164
7309.037124	1.227957	0.167765	688.883606
7309.038180	1.628064	0.167765	2408.119141
7309.039077	1.601371	0.167765	3844.548828
7309.039992	1.557513	0.167765	5269.673828
7309.041080	1.507255	0.167765	6909.566895
7309.042027	0.465674	0.167765	7350.560059
7309.042898	0.087576	0.167765	7426.838379
7309.043935	0.085741	0.167765	7515.751953
7309.044954	0.085551	0.167765	7602.927734
7309.045846	0.085591	0.167765	7679.274902
7309.046793	0.085580	0.167765	7760.318848
7309.047849	0.085576	0.167765	7850.687500
7309.048789	0.085624	0.167765	7931.173828
7309.049653	0.085605	0.167765	8005.136719
7309.050705	0.085682	0.167765	8095.274414
7310.100955	1.119177	0.169993	499.153046
7310.101829	1.618832	0.169993	1914.012085
7310.102747	1.614203	0.169993	3395.850342
7310.103702	1.570093	0.169993	4895.289062
7310.104631	1.525730	0.169993	6312.692383
7310.105511	1.146870	0.169993	7321.937988
7310.106430	0.128467	0.169993	7439.999023
7310.107381	0.085466	0.169993	7521.277344
7310.108273	0.085503	0.169993	7597.545898
7310.109181	0.085510	0.169993	7675.189453
7310.110130	0.085620	0.169993	7756.442871
7310.111048	0.085540	0.169993	7834.968262
7310.111926	0.085466	0.169993	7910.007812
7310.112852	0.085591	0.169993	7989.265137
7310.113812	0.085536	0.169993	8071.379395
7310.114737	0.085543	0.169993	8150.506836
7311.113663	1.089968	0.178472	465.416412
7311.114614	1.617019	0.178472	2003.201538
7311.115556	1.610680	0.178472	3520.461914
7311.116479	1.567639	0.178472	4967.392578
7311.117345	1.526360	0.178472	6289.220215
7311.118318	1.010350	0.178472	7272.291016
7311.119264	0.107560	0.178472	7374.042480
7311.120189	0.085470	0.178472	7453.102051
7311.121063	0.085613	0.178472	7527.927734
7311.122037	0.085605	0.178472	7611.307617
7311.122992	0.085627	0.178472	7693.082031
7311.123887	0.085609	0.178472	7769.702148
7311.124795	0.085613	0.178472	7847.438477
7311.125734	0.085540	0.178472	7927.760254
7311.126667	0.085580	0.178472	8007.606445
7311.127542	0.085598	0.178472	8082.504883
7312.176066	1.092122	0.175177	464.151672
7312.177051	1.617590	0.175177	2057.478027
7312.178060	1.605641	0.175177	3677.569824
7312.178947	1.563783	0.175177	5064.645508
7312.179811	1.522343	0.175177	6379.949219
7312.180904	0.790188	0.175177	7243.624512
7312.181820	0.092563	0.175177	7328.412598
7312.182686	0.085474	0.175177	7402.432617
7312.183643	0.085715	0.175177	7484.462402
7312.184657	0.085576	0.175177	7571.236816
7312.185550	0.085540	0.175177	7647.623535
7312.186415	0.085562	0.175177	7721.634277
7312.187472	0.085693	0.175177	7812.211914
7312.188409	0.085518	0.175177	7892.341797
7312.189281	0.085587	0.175177	7966.973633
7312.190211	0.085602	0.175177	8046.583496
7313.186879	1.211715	0.173610	656.749573
7313.187913	1.627980	0.173610	2340.080566
7313.188801	1.603403	0.173610	3763.902832
7313.189782	1.557806	0.173610	5292.110840
7313.190824	1.508965	0.173610	6864.452148
7313.191753	0.534280	0.173610	7360.797852
7313.192609	0.088601	0.173610	7436.640137
7313.193668	0.085605	0.173610	7527.296387
7313.194682	0.085547	0.173610	7614.041016
7313.195549	0.085543	0.173610	7688.207031
7313.196515	0.085726	0.173610	7771.018555
7313.197572	0.085620	0.173610	7861.519043
7313.198488	0.085565	0.173610	7939.896973
7313.199357	0.085627	0.173610	8014.307129
7313.200422	0.085686	0.173610	8105.562988
7313.201407	0.085554	0.173610	8189.833984
7314.251736	1.143666	0.176877	512.362305
7314.252697	1.623124	0.176877	2072.184082
7314.253621	1.609219	0.176877	3559.102051
7314.254491	1.567559	0.176877	4922.877930
7314.255471	1.522705	0.176877	6415.128906
7314.256431	0.948366	0.176877	7325.559570
7314.257325	0.103894	0.176877	7418.440918
7314.258238	0.085529	0.176877	7496.528320
7314.259195	0.085580	0.176877	7578.428223
7314.260119	0.085514	0.176877	7657.442871
7314.260981	0.085529	0.176877	7731.168457
7314.261943	0.085562	0.176877	7813.478516
7314.262891	0.085540	0.176877	7894.569824
7314.263816	0.085540	0.176877	7973.693848
7314.264692	0.085503	0.176877	8048.594238
7314.265650	0.085455	0.176877	8130.460449
7315.261380	1.088372	0.175390	467.999817
7315.262249	1.616440	0.175390	1872.686523
7315.263113	1.616122	0.175390	3269.015869
7315.264180	1.568551	0.175390	4942.660156
7315.265065	1.526100	0.175390	6293.258789
7315.265937	1.171044	0.175390	7314.408691
7315.266820	0.145177	0.175390	7442.600098
7315.267850	0.085492	0.175390	7530.656738
7315.268736	0.085598	0.175390	7606.496582
7315.269612	0.085598	0.175390	7681.480469
7315.270589	0.085540	0.175390	7765.052734
7315.271533	0.085638	0.175390	7845.895508
7315.272458	0.085466	0.175390	7924.951660
7315.273322	0.085562	0.175390	7998.876953
7315.274345	0.085554	0.175390	8086.398926
7315.275229	0.085543	0.175390	8162.019043
7316.326484	1.226550	0.176559	688.094666
7316.327517	1.627800	0.176559	2369.612305
7316.328406	1.602462	0.176559	3794.201172
7316.329346	1.558063	0.176559	5258.780273
7316.330408	1.509016	0.176559	6861.355469
7316.331347	0.522905	0.176559	7352.363281
7316.332205	0.088359	0.176559	7428.175781
7316.333267	0.085635	0.176559	7519.120117
7316.334291	0.085536	0.176559	7606.708984
7316.335160	0.085510	0.176559	7681.017578
7316.336115	0.085679	0.176559	7762.840820
7316.337165	0.085602	0.176559	7852.722656
7316.338088	0.085584	0.176559	7931.716309
7316.338953	0.085587	0.176559	8005.749023
7316.340010	0.085594	0.176559	8096.222168
7316.341014	0.085540	0.176559	8182.104004
7317.335495	1.114904	0.171531	479.408539
7317.336427	1.621267	0.171531	1990.429443
7317.337309	1.612822	0.171531	3412.938721
7317.338241	1.569613	0.171531	4875.817871
7317.339203	1.524994	0.171531	6342.862305
7317.340135	1.058796	0.171531	7329.660645
7317.340992	0.121919	0.171531	7434.145020
7317.341947	0.085452	0.171531	7515.751465
7317.342896	0.085584	0.171531	7596.970215
7317.343782	0.085521	0.171531	7672.742187
7317.344657	0.085540	0.171531	7747.589355
7317.345614	0.085565	0.171531	7829.475098
7317.346553	0.085518	0.171531	7909.775879
7317.347448	0.085481	0.171531	7986.281250
7317.348377	0.085518	0.171531	8065.727051
7317.349326	0.085635	0.171531	8146.994629
7318.401980	1.085500	0.178545	460.252197
7318.402850	1.616331	0.178545	1866.459839
7318.403787	1.614111	0.178545	3378.882080
7318.404709	1.570371	0.178545	4826.764160
7318.405624	1.527993	0.178545	6224.877930
7318.406501	1.225181	0.178545	7299.361328
7318.407462	0.146536	0.178545	7440.182129
7318.408403	0.085496	0.178545	7520.633301
7318.409300	0.085554	0.178545	7597.375488
7318.410179	0.085598	0.178545	7672.616211
7318.411125	0.085547	0.178545	7753.543457
7318.412065	0.085518	0.178545	7833.930176
7318.412972	0.085514	0.178545	7911.491211
7318.413835	0.085514	0.178545	7985.289551
7318.414804	0.085485	0.178545	8068.124023
7318.415762	0.085521	0.178545	8150.053223
7319.410659	1.132379	0.173698	522.026794
7319.411536	1.619678	0.173698	1942.484131
7319.412402	1.613804	0.173698	3340.038086
7319.413483	1.564995	0.173698	5031.797852
7319.414408	1.521335	0.173698	6439.033203
7319.415287	1.035670	0.173698	7349.387207
7319.416259	0.116517	0.173698	7462.642090
7319.417283	0.085481	0.173698	7550.174805
7319.418156	0.085532	0.173698	7624.844238
7319.419019	0.085565	0.173698	7698.687012
7319.420064	0.085675	0.173698	7788.217285
7319.421013	0.085569	0.173698	7869.421875
7319.421887	0.085584	0.173698	7944.221680
7319.422818	0.085609	0.173698	8023.923828
7319.423875	0.085660	0.173698	8114.466797
7319.424762	0.085547	0.173698	8190.346680
7320.477164	1.147668	0.178802	542.847168
7320.478048	1.620916	0.178802	1975.736450
7320.479015	1.610153	0.178802	3532.753906
7320.480067	1.560348	0.178802	5174.239746
7320.481010	1.516406	0.178802	6604.210937
7320.481885	0.864591	0.178802	7360.728027
7320.482936	0.091531	0.178802	7456.926758
7320.483927	0.085488	0.178802	7541.645508
7320.484807	0.085543	0.178802	7616.923340
7320.485778	0.085671	0.178802	7700.110352
7320.486825	0.085529	0.178802	7789.658691
7320.487737	0.085540	0.178802	7867.670898
7320.488595	0.085565	0.178802	7941.085937
7320.489685	0.085653	0.178802	8034.447754
7320.490673	0.085580	0.178802	8119.000488
7320.491543	0.085529	0.178802	8193.410156
7321.486281	1.107067	0.176828	477.145721
7321.487149	1.616964	0.176828	1880.670532
7321.488126	1.611222	0.176828	3454.834473
7321.489043	1.568588	0.176828	4893.229492
7321.489928	1.526946	0.176828	6244.576660
7321.490840	1.150481	0.176828	7293.815430
7321.491807	0.123622	0.176828	7413.357910
7321.492722	0.085466	0.176828	7491.559570
7321.493585	0.085532	0.176828	7565.374023
7321.494533	0.085496	0.176828	7646.423828
7321.495476	0.085554	0.176828	7727.101562
7321.496409	0.085525	0.176828	7806.896484
7321.497268	0.085536	0.176828	7880.371582
7321.498211	0.085507	0.176828	7961.004395
7321.499157	0.085573	0.176828	8041.956055
7321.500053	0.085584	0.176828	8118.638672
7322.551747	1.095802	0.180502	471.194885
7322.552608	1.615576	0.180502	1862.206055
7322.553656	1.609281	0.180502	3548.732422
7322.554533	1.567397	0.180502	4923.339844
7322.555410	1.526499	0.180502	6262.079590
7322.556378	1.037289	0.180502	7266.175293
7322.557333	0.107014	0.180502	7368.374023
7322.558250	0.085481	0.180502	7446.760254
7322.559129	0.085558	0.180502	7521.965820
7322.560158	0.085569	0.180502	7610.016113
7322.561049	0.085562	0.180502	7686.251465
7322.561922	0.085525	0.180502	7760.914551
7322.562813	0.085646	0.180502	7837.225098
7322.563837	0.085532	0.180502	7924.810059
7322.564717	0.085496	0.180502	8000.046387
7322.565581	0.085551	0.180502	8073.961914
7323.560392	1.108451	0.175890	479.959229
7323.561266	1.617041	0.175890	1893.253052
7323.562265	1.610024	0.175890	3501.667480
7323.563322	1.561392	0.175890	5152.058594
7323.564224	1.518662	0.175890	6521.891602
7323.565118	0.895942	0.175890	7322.864258
7323.566211	0.091025	0.175890	7422.354980
7323.567171	0.085492	0.175890	7504.427246
7323.568038	0.085507	0.175890	7578.561523
7323.569066	0.085616	0.175890	7666.575195
7323.570085	0.085642	0.175890	7753.844727
7323.570973	0.085569	0.175890	7829.830078
7323.571878	0.085613	0.175890	7907.309570
7323.572935	0.085609	0.175890	7997.798340
7323.573876	0.085485	0.175890	8078.239258
7323.574738	0.085521	0.175890	8151.958496
7324.627982	1.152059	0.184772	584.094055
7324.628922	1.623724	0.184772	2110.395020
7324.629834	1.607897	0.184772	3576.796875
7324.630715	1.566138	0.184772	4956.564453
7324.631669	1.522222	0.184772	6408.763672
7324.632628	0.949504	0.184772	7319.338379
7324.633522	0.102198	0.184772	7410.703613
7324.634387	0.085452	0.184772	7484.619141
7324.635353	0.085565	0.184772	7567.274902
7324.636311	0.085499	0.184772	7649.183105
7324.637200	0.085521	0.184772	7725.211426
7324.638121	0.085529	0.184772	7803.983398
7324.639078	0.085584	0.184772	7885.886719
7324.639970	0.085532	0.184772	7962.181641
7324.640852	0.085551	0.184772	8037.637207
7324.641800	0.085554	0.184772	8118.742676
7325.635528	1.102994	0.180196	475.390564
7325.636398	1.616770	0.180196	1881.980469
7325.637369	1.611698	0.180196	3446.939209
7325.638294	1.568558	0.180196	4897.855469
7325.639186	1.526763	0.180196	6259.727539
7325.640107	1.142311	0.180196	7311.795898
7325.641040	0.122944	0.180196	7426.502930
7325.641985	0.085554	0.180196	7507.351562
7325.642861	0.085591	0.180196	7582.329102
7325.643792	0.085638	0.180196	7662.058594
7325.644722	0.085631	0.180196	7741.695312
7325.645612	0.085609	0.180196	7817.887207
7325.646543	0.085631	0.180196	7897.609863
7325.647469	0.085605	0.180196	7976.880371
7325.648399	0.085551	0.180196	8056.442383
7325.649289	0.085631	0.180196	8132.654297
7326.702018	1.086313	0.185989	464.942169
7326.702947	1.615939	0.185989	1966.149170
7326.703890	1.609731	0.185989	3484.125977
7326.704815	1.567152	0.185989	4933.741699
7326.705692	1.525287	0.185989	6271.418457
7326.706722	0.965193	0.185989	7265.566895
7326.707616	0.104791	0.185989	7359.250488
7326.708532	0.085496	0.185989	7437.564453
7326.709399	0.085613	0.185989	7511.790527
7326.710393	0.085514	0.185989	7596.791504
7326.711311	0.085543	0.185989	7675.320312
7326.712187	0.085576	0.185989	7750.285156
7326.713103	0.085562	0.185989	7828.659668
7326.714034	0.085569	0.185989	7908.324219
7326.714934	0.085521	0.185989	7985.293457
7326.715799	0.085646	0.185989	8059.376953
7327.710158	1.103961	0.182218	486.846863
7327.711033	1.617235	0.182218	1901.927490
7327.711971	1.611896	0.182218	3413.885742
7327.713040	1.563376	0.182218	5085.135254
7327.713921	1.521306	0.182218	6425.406250
7327.714799	1.038428	0.182218	7337.145508
7327.715827	0.101034	0.182218	7441.008301
7327.716783	0.085444	0.182218	7522.692871
7327.717656	0.085536	0.182218	7597.365723
7327.718547	0.085584	0.182218	7673.620605
7327.719643	0.085605	0.182218	7767.444336
7327.720529	0.085591	0.182218	7843.277832
7327.721388	0.085605	0.182218	7916.812988
7327.722416	0.085646	0.182218	8004.856934
7327.723387	0.085584	0.182218	8087.958496
7327.724258	0.085569	0.182218	8162.488770
7328.777144	1.083655	0.186106	457.302307
7328.778076	1.615159	0.186106	1962.630127
7328.779157	1.604370	0.186106	3696.954102
7328.780097	1.559894	0.186106	5163.253906
7328.780972	1.518915	0.186106	6492.304199
7328.782030	0.717521	0.186106	7251.441406
7328.783036	0.088363	0.186106	7340.334473
7328.783926	0.085543	0.186106	7416.467773
7328.784882	0.085745	0.186106	7498.439453
7328.785916	0.085616	0.186106	7586.966797
7328.786836	0.085496	0.186106	7665.622559
7328.787700	0.085569	0.186106	7739.554199
7328.788760	0.085580	0.186106	7830.269043
7328.789768	0.085576	0.186106	7916.529785
7328.790645	0.085602	0.186106	7991.602539
7328.791647	0.085591	0.186106	8077.364746
7329.784774	1.088840	0.178746	471.467865
7329.785658	1.617308	0.178746	1901.168457
7329.786523	1.615261	0.178746	3298.369629
7329.787471	1.571118	0.178746	4787.789551
7329.788424	1.526689	0.178746	6242.724609
7329.789359	1.131592	0.178746	7300.762695
7329.790216	0.136234	0.178746	7417.515137
7329.791170	0.085565	0.178746	7499.144531
7329.792099	0.085551	0.178746	7578.621094
7329.792974	0.085510	0.178746	7653.442383
7329.793937	0.085507	0.178746	7735.785156
7329.794853	0.085518	0.178746	7814.119141
7329.795780	0.085543	0.178746	7893.417480
7329.796643	0.085470	0.178746	7967.178223
7329.797618	0.085485	0.178746	8050.525879
7329.798560	0.085525	0.178746	8131.090332
7330.851798	1.114940	0.190146	493.918488
7330.852665	1.617462	0.190146	1896.258179
7330.853646	1.610566	0.190146	3476.223633
7330.854611	1.566226	0.190146	4987.631348
7330.855487	1.524218	0.190146	6322.845703
7330.856416	1.052717	0.190146	7300.820312
7330.857374	0.109622	0.190146	7405.837891
7330.858301	0.085529	0.190146	7485.123047
7330.859179	0.085536	0.190146	7560.223633
7330.860126	0.085602	0.190146	7641.288574
7330.861076	0.085514	0.190146	7722.526855
7330.862002	0.085594	0.190146	7801.787109
7330.862867	0.085558	0.190146	7875.794434
7330.863832	0.085569	0.190146	7958.368164
7330.864762	0.085609	0.190146	8037.984863
7330.865620	0.085565	0.190146	8111.399902
7331.860934	1.106971	0.184635	482.639526
7331.861802	1.616331	0.184635	1885.614502
7331.862846	1.608175	0.184635	3564.549316
7331.863736	1.566405	0.184635	4958.649414
7331.864613	1.525745	0.184635	6296.727539
7331.865626	0.978248	0.184635	7287.693359
7331.866537	0.106311	0.184635	7384.542480
7331.867441	0.085536	0.184635	7461.866699
7331.868321	0.085580	0.184635	7537.176758
7331.869333	0.085551	0.184635	7623.753906
7331.870234	0.085532	0.184635	7700.818359
7331.871108	0.085642	0.184635	7775.669434
7331.872050	0.085624	0.184635	7856.327148
7331.873025	0.085554	0.184635	7939.742676
7331.873940	0.085598	0.184635	8018.064941
7331.874803	0.085492	0.184635	8091.844727
7332.927418	1.109755	0.193482	471.645691
7332.928535	1.625328	0.193482	2287.137451
7332.929516	1.600697	0.193482	3857.421387
7332.930394	1.558685	0.193482	5225.947266
7332.931265	1.516446	0.193482	6546.771973
7332.932383	0.610558	0.193482	7229.375488
7332.933281	0.088495	0.193482	7308.843750
7332.934146	0.085540	0.193482	7382.835449
7332.935239	0.085616	0.193482	7476.414062
7332.936212	0.085543	0.193482	7559.647461
7332.937082	0.085587	0.193482	7634.108398
7332.937962	0.085620	0.193482	7709.454102
7332.939056	0.085551	0.193482	7803.046387
7332.939941	0.085470	0.193482	7878.687500
7332.940795	0.085459	0.193482	7951.669434
7332.941848	0.085697	0.193482	8041.908203
7333.936074	1.116248	0.185127	487.800171
7333.936954	1.617634	0.185127	1911.318359
7333.937963	1.609340	0.185127	3535.142090
7333.939017	1.560762	0.185127	5180.185059
7333.939900	1.518611	0.185127	6521.118164
7333.940805	0.898630	0.185127	7334.378418
7333.941876	0.092560	0.185127	7433.509766
7333.942832	0.085540	0.185127	7515.285645
7333.943689	0.085543	0.185127	7588.596191
7333.944697	0.085642	0.185127	7674.923340
7333.945761	0.085554	0.185127	7765.953125
7333.946632	0.085584	0.185127	7840.496582
7333.947558	0.085616	0.185127	7919.777344
7333.948627	0.085631	0.185127	8011.316895
7333.949564	0.085492	0.185127	8091.422852
7333.950430	0.085591	0.185127	8165.544434
7335.001539	1.100603	0.188378	473.259277
7335.002413	1.616396	0.188378	1885.989746
7335.003349	1.612354	0.188378	3395.152832
7335.004319	1.567749	0.188378	4915.869141
7335.005247	1.524774	0.188378	6330.859375
7335.006115	1.124103	0.188378	7306.580566
7335.007063	0.123571	0.188378	7423.725586
7335.008013	0.085496	0.188378	7504.946289
7335.008900	0.085580	0.188378	7580.855469
7335.009796	0.085620	0.188378	7657.571289
7335.010726	0.085503	0.188378	7737.088867
7335.011681	0.085540	0.188378	7818.779297
7335.012575	0.085532	0.188378	7895.245117
7335.013485	0.085602	0.188378	7973.142578
7335.014435	0.085521	0.188378	8054.387695
7335.015356	0.085514	0.188378	8133.145996
7336.011213	1.106814	0.183918	481.464050
7336.012079	1.616664	0.183918	1881.494873
7336.013055	1.611625	0.183918	3454.440430
7336.013981	1.568448	0.183918	4906.823730
7336.014842	1.527572	0.183918	6222.063477
7336.015816	1.059701	0.183918	7254.211914
7336.016779	0.112808	0.183918	7362.845703
7336.017696	0.085466	0.183918	7441.218262
7336.018577	0.085540	0.183918	7516.578613
7336.019546	0.085573	0.183918	7599.498535
7336.020486	0.085507	0.183918	7679.874512
7336.021378	0.085540	0.183918	7756.175781
7336.022280	0.085536	0.183918	7833.329102
7336.023209	0.085525	0.183918	7912.781738
7336.024156	0.085547	0.183918	7993.794434
7336.025032	0.085543	0.183918	8068.730469
7337.076162	1.101105	0.194529	472.373932
7337.077035	1.616660	0.194529	1883.718140
7337.077901	1.613324	0.194529	3280.856934
7337.078962	1.566720	0.194529	4943.146973
7337.079848	1.524778	0.194529	6294.100098
7337.080783	1.090869	0.194529	7314.062988
7337.081645	0.126526	0.194529	7423.128418
7337.082629	0.085389	0.194529	7507.151367
7337.083545	0.085485	0.194529	7585.455078
7337.084414	0.085558	0.194529	7659.804687
7337.085444	0.085536	0.194529	7747.906738
7337.086327	0.085573	0.194529	7823.467285
7337.087231	0.085507	0.194529	7900.765137
7337.088107	0.085558	0.194529	7975.713867
7337.089042	0.085499	0.194529	8055.655762
7337.089990	0.085470	0.194529	8136.681152
7338.085830	1.096457	0.189381	476.959015
7338.086707	1.617363	0.189381	1895.386475
7338.087649	1.612299	0.189381	3414.171875
7338.088674	1.564991	0.189381	5018.288086
7338.089557	1.523221	0.189381	6363.292480
7338.090427	1.109912	0.189381	7328.916016
7338.091466	0.108267	0.189381	7441.404785
7338.092413	0.085514	0.189381	7522.386230
7338.093279	0.085602	0.189381	7596.517578
7338.094179	0.085627	0.189381	7673.582031
7338.095265	0.085554	0.189381	7766.493652
7338.096156	0.085547	0.189381	7842.715820
7338.097022	0.085547	0.189381	7916.799316
7338.098024	0.085587	0.189381	8002.557617
7338.099001	0.085419	0.189381	8086.011719
7338.099873	0.085569	0.189381	8160.627930
7339.151374	1.163130	0.198042	587.380615
7339.152316	1.624699	0.198042	2117.846680
7339.153193	1.608812	0.198042	3528.774902
7339.154240	1.559883	0.198042	5161.972168
7339.155271	1.511953	0.198042	6720.795898
7339.156170	0.710804	0.198042	7359.809082
7339.157121	0.092461	0.198042	7447.739258
7339.158167	0.085635	0.198042	7537.312988
7339.159110	0.085518	0.198042	7617.956055
7339.159972	0.085510	0.198042	7691.666016
7339.161035	0.085620	0.198042	7782.680176
7339.162038	0.085503	0.198042	7868.439453
7339.162920	0.085470	0.198042	7943.823730
7339.163896	0.085587	0.198042	8027.356934
7339.164942	0.085444	0.198042	8116.731934
7339.165850	0.085518	0.198042	8194.381836
7340.161502	1.117961	0.191665	504.200592
7340.162364	1.617697	0.191665	1898.654907
7340.163334	1.610445	0.191665	3460.787109
7340.164266	1.567101	0.191665	4921.325195
7340.165155	1.525419	0.191665	6277.422363
7340.166076	1.115482	0.191665	7304.781250
7340.167025	0.115726	0.191665	7414.605469
7340.167949	0.085466	0.191665	7493.576172
7340.168833	0.085664	0.191665	7569.303223
7340.169766	0.085532	0.191665	7649.104980
7340.170719	0.085499	0.191665	7730.585937
7340.171645	0.085573	0.191665	7809.826172
7340.172501	0.085569	0.191665	7883.073242
7340.173439	0.085485	0.191665	7963.257812
7340.174369	0.085521	0.191665	8042.792480
7340.175287	0.085518	0.191665	8121.297852
7341.225454	1.153982	0.189808	548.141418
7341.226393	1.622981	0.189808	2072.120605
7341.227319	1.608516	0.189808	3561.605957
7341.228185	1.567273	0.189808	4918.864258
7341.229163	1.522515	0.189808	6407.883789
7341.230122	0.957092	0.189808	7325.735352
7341.231012	0.106058	0.189808	7420.127441
7341.231924	0.085488	0.189808	7498.092773
7341.232856	0.085558	0.189808	7577.832520
7341.233787	0.085481	0.189808	7657.415527
7341.234661	0.085602	0.189808	7732.231445
7341.235570	0.085576	0.189808	7810.020020
7341.236528	0.085569	0.189808	7891.995117
7341.237448	0.085540	0.189808	7970.691406
7341.238322	0.085591	0.189808	8045.497559
7341.239272	0.085584	0.189808	8126.801758
7342.237116	1.085255	0.196930	459.062927
7342.238151	1.622728	0.196930	2138.586670
7342.239061	1.607432	0.196930	3601.349609
7342.239936	1.566028	0.196930	4971.624023
7342.240831	1.523101	0.196930	6334.798828
7342.241883	0.879232	0.196930	7259.750977
7342.242765	0.099943	0.196930	7347.900391
7342.243630	0.085496	0.196930	7421.854004
7342.244634	0.085605	0.196930	7507.801758
7342.245530	0.085594	0.196930	7584.494629
7342.246440	0.085602	0.196930	7662.392090
7342.247332	0.085573	0.196930	7738.722656
7342.248366	0.085558	0.196930	7827.189453
7342.249250	0.085540	0.196930	7902.806641
7342.250123	0.085532	0.196930	7977.476074
7342.251088	0.085587	0.196930	8060.067871
7343.301137	1.163613	0.199488	591.115479
7343.302053	1.623501	0.199488	2078.242432
7343.302913	1.609951	0.199488	3462.800293
7343.303959	1.561333	0.199488	5095.954590
7343.304975	1.514015	0.199488	6634.193848
7343.305874	0.795949	0.199488	7349.751465
7343.306848	0.094585	0.199488	7441.877441
7343.307904	0.085627	0.199488	7532.299805
7343.308807	0.085551	0.199488	7609.551758
7343.309678	0.085477	0.199488	7684.002441
7343.310762	0.085649	0.199488	7776.846191
7343.311750	0.085499	0.199488	7861.319336
7343.312638	0.085573	0.199488	7937.307617
7343.313621	0.085569	0.199488	8021.421875
7343.314679	0.085690	0.199488	8112.081543
7343.315573	0.085569	0.199488	8188.580078
7344.312291	1.155029	0.202034	527.848389
7344.313264	1.622977	0.202034	2107.005371
7344.314201	1.607032	0.202034	3612.794922
7344.315069	1.565632	0.202034	4971.763672
7344.316048	1.521072	0.202034	6460.893066
7344.317006	0.925613	0.202034	7347.629883
7344.317874	0.102283	0.202034	7436.411133
7344.318759	0.085470	0.202034	7512.052246
7344.319714	0.085562	0.202034	7593.763672
7344.320663	0.085584	0.202034	7674.982422
7344.321551	0.085635	0.202034	7751.025879
7344.322460	0.085481	0.202034	7828.728027
7344.323415	0.085580	0.202034	7910.456543
7344.324336	0.085576	0.202034	7989.271973
7344.325201	0.085507	0.202034	8063.235352
7344.326162	0.085514	0.202034	8145.414062
7345.376222	1.131149	0.201381	509.016907
7345.377093	1.618392	0.201381	1918.636719
7345.377959	1.613057	0.201381	3315.543945
7345.378940	1.568774	0.201381	4854.511719
7345.379890	1.524734	0.201381	6303.008789
7345.380795	1.117236	0.201381	7314.107422
7345.381715	0.127994	0.201381	7431.862305
7345.382672	0.085470	0.201381	7513.657227
7345.383596	0.085510	0.201381	7592.668945
7345.384457	0.085562	0.201381	7666.337402
7345.385406	0.085613	0.201381	7747.583984
7345.386333	0.085543	0.201381	7826.882324
7345.387203	0.085507	0.201381	7901.272949
7345.388237	0.085485	0.201381	7989.664062
7345.389194	0.085510	0.201381	8071.497559
7345.390115	0.085620	0.201381	8150.353516
7346.386362	1.091521	0.197594	460.621887
7346.387448	1.623746	0.197594	2224.010498
7346.388376	1.604154	0.197594	3712.665527
7346.389251	1.562955	0.197594	5080.251465
7346.390236	1.518014	0.197594	6575.495117
7346.391268	0.691403	0.197594	7289.022461
7346.392141	0.091238	0.197594	7368.672852
7346.393004	0.085518	0.197594	7442.474609
7346.394043	0.085642	0.197594	7531.456543
7346.394995	0.085510	0.197594	7612.862305
7346.395869	0.085613	0.197594	7687.687988
7346.396823	0.085682	0.197594	7769.429199
7346.397856	0.085569	0.197594	7857.821777
7346.398746	0.085697	0.197594	7934.092285
7346.399609	0.085587	0.197594	8007.954102
7346.400655	0.085679	0.197594	8097.574219
7347.450411	1.206482	0.203709	644.261353
7347.451390	1.626753	0.203709	2236.852539
7347.452259	1.606424	0.203709	3632.835449
7347.453327	1.556177	0.203709	5294.832031
7347.454369	1.508064	0.203709	6866.234375
7347.455270	0.569725	0.203709	7379.556641
7347.456136	0.089019	0.203709	7456.646484
7347.457179	0.085536	0.203709	7545.860352
7347.458150	0.085518	0.203709	7628.897949
7347.459025	0.085543	0.203709	7703.748047
7347.459923	0.085529	0.203709	7780.552734
7347.461006	0.085496	0.203709	7873.144531
7347.461878	0.085507	0.203709	7947.706055
7347.462736	0.085569	0.203709	8021.124023
7347.463761	0.085631	0.203709	8108.895996
7347.464719	0.085488	0.203709	8190.793945
7348.461503	1.087870	0.202114	461.256836
7348.462447	1.619451	0.202114	1990.018311
7348.463392	1.608706	0.202114	3510.245605
7348.464320	1.565786	0.202114	4963.294922
7348.465198	1.524045	0.202114	6301.406738
7348.466184	1.001558	0.202114	7288.942383
7348.467139	0.104476	0.202114	7388.717285
7348.468026	0.085422	0.202114	7464.486816
7348.468934	0.085492	0.202114	7542.113281
7348.469885	0.085562	0.202114	7623.482422
7348.470816	0.085540	0.202114	7703.119629
7348.471686	0.085488	0.202114	7777.494629
7348.472692	0.085653	0.202114	7863.661621
7348.473752	0.085627	0.202114	7954.426758
7348.474706	0.085576	0.202114	8036.066406
7348.475565	0.085573	0.202114	8109.573242
7349.526017	1.168337	0.201530	565.475342
7349.526904	1.620861	0.201530	2003.178711
7349.527765	1.611647	0.201530	3390.806641
7349.528726	1.567423	0.201530	4897.100098
7349.529682	1.523412	0.201530	6353.481934
7349.530580	1.087203	0.201530	7329.790527
7349.531501	0.124768	0.201530	7444.702148
7349.532437	0.085441	0.201530	7524.674805
7349.533342	0.085466	0.201530	7602.021973
7349.534201	0.085543	0.201530	7675.503418
7349.535179	0.085624	0.201530	7759.243652
7349.536126	0.085569	0.201530	7840.277344
7349.537012	0.085565	0.201530	7916.087891
7349.537943	0.085551	0.201530	7995.735352
7349.538878	0.085591	0.201530	8075.762695
7349.539805	0.085510	0.201530	8155.030762
7350.536635	1.108389	0.203738	467.740021
7350.537667	1.624215	0.203738	2143.930176
7350.538551	1.608003	0.203738	3565.404785
7350.539429	1.567108	0.203738	4941.325684
7350.540424	1.520988	0.203738	6454.708008
7350.541382	0.900857	0.203738	7317.729004
7350.542312	0.097698	0.203738	7408.587891
7350.543178	0.085551	0.203738	7482.674805
7350.544211	0.085627	0.203738	7571.127930
7350.545095	0.085562	0.203738	7646.764160
7350.545970	0.085514	0.203738	7721.588867
7350.546955	0.085620	0.203738	7805.924805
7350.547904	0.085569	0.203738	7887.129883
7350.548825	0.085635	0.203738	7965.999512
7350.549684	0.085540	0.203738	8039.478027
7350.550699	0.085657	0.203738	8126.419434
7351.601602	1.091199	0.204588	468.124237
7351.602465	1.615301	0.204588	1862.129395
7351.603518	1.607761	0.204588	3555.102051
7351.604473	1.563446	0.204588	5048.192871
7351.605357	1.522189	0.204588	6393.807617
7351.606306	0.954254	0.204588	7299.394531
7351.607334	0.096171	0.204588	7398.257812
7351.608209	0.085536	0.204588	7473.101562
7351.609074	0.085635	0.204588	7547.175781
7351.609995	0.085704	0.204588	7626.109375
7351.610990	0.085591	0.204588	7711.272461
7351.611906	0.085598	0.204588	7789.680176
7351.612778	0.085584	0.204588	7864.309082
7351.613821	0.085686	0.204588	7953.679687
7351.614729	0.085591	0.204588	8031.395996
7351.615603	0.085551	0.204588	8106.166992
7352.610338	1.181708	0.198384	614.488037
7352.611240	1.623680	0.198384	2079.047852
7352.612105	1.608387	0.198384	3470.302979
7352.613196	1.559388	0.198384	5171.595703
7352.614195	1.513008	0.198384	6683.090332
7352.615088	0.758958	0.198384	7360.839355
7352.616107	0.092073	0.198384	7454.661621
7352.617141	0.085602	0.198384	7543.173828
7352.618009	0.085569	0.198384	7617.447754
7352.618894	0.085616	0.198384	7693.218262
7352.619978	0.085613	0.198384	7786.022461
7352.620935	0.085474	0.198384	7867.820801
7352.621807	0.085521	0.198384	7942.395508
7352.622816	0.085675	0.198384	8028.841797
7352.623851	0.085580	0.198384	8117.416992
7352.624741	0.085547	0.198384	8193.553711
7353.677763	1.093521	0.212914	466.933258
7353.678699	1.619539	0.212914	1982.821411
7353.679666	1.608190	0.212914	3537.940918
7353.680588	1.565687	0.212914	4981.504395
7353.681454	1.524258	0.212914	6301.511719
7353.682414	1.017832	0.212914	7278.630371
7353.683346	0.108098	0.212914	7379.377930
7353.684224	0.085485	0.212914	7454.433594
7353.685171	0.085543	0.212914	7535.442871
7353.686106	0.085573	0.212914	7615.453125
7353.687015	0.085547	0.212914	7693.215332
7353.687878	0.085573	0.212914	7767.064453
7353.688846	0.085580	0.212914	7849.905762
7353.689780	0.085492	0.212914	7929.755371
7353.690662	0.085554	0.212914	8005.214355
7353.691590	0.085492	0.212914	8084.550781
7354.685397	1.101592	0.204318	484.700409
7354.686265	1.617122	0.204318	1888.361938
7354.687132	1.613276	0.204318	3287.072510
7354.688106	1.569335	0.204318	4815.604492
7354.689054	1.525455	0.204318	6261.736328
7354.689951	1.156864	0.204318	7299.443359
7354.690863	0.136315	0.204318	7423.762207
7354.691814	0.085441	0.204318	7505.016113
7354.692698	0.085609	0.204318	7580.694824
7354.693635	0.085576	0.204318	7660.879883
7354.694555	0.085576	0.204318	7739.609863
7354.695496	0.085503	0.204318	7820.068359
7354.696372	0.085562	0.204318	7895.020020
7354.697284	0.085499	0.204318	7972.995117
7354.698235	0.085558	0.204318	8054.360840
7354.699153	0.085554	0.204318	8132.899414
7355.751362	1.103866	0.208685	477.973969
7355.752238	1.616510	0.208685	1894.036743
7355.753234	1.609687	0.208685	3497.285400
7355.754187	1.564702	0.208685	4988.446289
7355.755121	1.521720	0.208685	6409.732422
7355.755994	1.043639	0.208685	7320.829102
7355.757025	0.100096	0.208685	7424.028320
7355.757893	0.085518	0.208685	7498.257812
7355.758761	0.085598	0.208685	7572.557129
7355.759732	0.085638	0.208685	7655.711914
7355.760684	0.085547	0.208685	7737.152344
7355.761588	0.085605	0.208685	7814.539551
7355.762470	0.085565	0.208685	7890.007812
7355.763488	0.085605	0.208685	7977.154297
7355.764382	0.085547	0.208685	8053.633301
7355.765255	0.085573	0.208685	8128.337891
7356.760528	1.099874	0.206042	488.344177
7356.761389	1.616327	0.206042	1880.001709
7356.762415	1.607963	0.206042	3529.771484
7356.763459	1.559656	0.206042	5158.052246
7356.764353	1.518047	0.206042	6515.186035
7356.765300	0.844900	0.206042	7315.306152
7356.766377	0.089729	0.206042	7411.944336
7356.767310	0.085536	0.206042	7491.749512
7356.768178	0.085627	0.206042	7566.074219
7356.769237	0.085660	0.206042	7656.788574
7356.770247	0.085613	0.206042	7743.257324
7356.771134	0.085518	0.206042	7819.111328
7356.772087	0.085620	0.206042	7900.707520
7356.773141	0.085569	0.206042	7990.896973
7356.774066	0.085551	0.206042	8070.031250
7356.774926	0.085602	0.206042	8143.648926
7357.827002	1.082933	0.211255	458.080841
7357.827945	1.616360	0.211255	1982.308105
7357.828885	1.609274	0.211255	3495.025391
7357.829815	1.566185	0.211255	4951.577637
7357.830696	1.524782	0.211255	6294.910156
7357.831669	1.034974	0.211255	7301.940430
7357.832605	0.106959	0.211255	7402.054199
7357.833509	0.085562	0.211255	7479.401855
7357.834370	0.085551	0.211255	7553.061035
7357.835335	0.085503	0.211255	7635.571289
7357.836283	0.085503	0.211255	7716.627930
7357.837174	0.085598	0.211255	7792.895996
7357.838091	0.085532	0.211255	7871.329102
7357.839046	0.085605	0.211255	7953.082520
7357.839946	0.085514	0.211255	8030.044922
7357.840829	0.085605	0.211255	8105.634766
7358.835154	1.108312	0.209087	484.332245
7358.836026	1.616627	0.209087	1894.031250
7358.836999	1.610610	0.209087	3461.155273
7358.837931	1.567522	0.209087	4922.085937
7358.838815	1.525803	0.209087	6270.895996
7358.839720	1.097487	0.209087	7264.121582
7358.840674	0.120930	0.209087	7379.488770
7358.841622	0.085470	0.209087	7460.514160
7358.842511	0.085496	0.209087	7536.519531
7358.843422	0.085580	0.209087	7614.482910
7358.844381	0.085547	0.209087	7696.522461
7358.845305	0.085514	0.209087	7775.537109
7358.846172	0.085532	0.209087	7849.693359
7358.847122	0.085507	0.209087	7930.924805
7358.848047	0.085503	0.209087	8010.015137
7358.848971	0.085507	0.209087	8089.023437
7359.904198	1.099450	0.213962	477.161102
7359.905066	1.615986	0.213962	1879.837158
7359.906036	1.610749	0.213962	3442.264160
7359.906980	1.566680	0.213962	4921.209961
7359.907893	1.524474	0.213962	6313.054687
7359.908781	1.121792	0.213962	7309.206055
7359.909809	0.107889	0.213962	7420.116211
7359.910710	0.085444	0.213962	7497.101562
7359.911582	0.085507	0.213962	7571.663086
7359.912486	0.085646	0.213962	7649.086914
7359.913501	0.085584	0.213962	7735.954102
7359.914414	0.085503	0.213962	7814.018066
7359.915281	0.085543	0.213962	7888.184082
7359.916383	0.085591	0.213962	7982.505371
7359.917258	0.085529	0.213962	8057.342773
7359.918121	0.085613	0.213962	8131.226562
7360.908820	1.179141	0.205728	593.107727
7360.909838	1.626258	0.205728	2248.638916
7360.910729	1.604656	0.205728	3678.387207
7360.911685	1.560212	0.205728	5169.950195
7360.912739	1.510814	0.205728	6762.348633
7360.913671	0.616619	0.205728	7337.037109
7360.914531	0.090154	0.205728	7414.569336
7360.915612	0.085664	0.205728	7507.172363
7360.916596	0.085591	0.205728	7591.393555
7360.917488	0.085518	0.205728	7667.675293
7360.918474	0.085657	0.205728	7752.132812
7360.919507	0.085591	0.205728	7840.548340
7360.920405	0.085584	0.205728	7917.402344
7360.921264	0.085657	0.205728	7990.981445
7360.922363	0.085686	0.205728	8085.150391
7360.923343	0.085565	0.205728	8169.004395
7361.977816	1.129054	0.216983	492.267517
7361.978749	1.620919	0.216983	2004.584961
7361.979627	1.611954	0.216983	3419.880859
7361.980570	1.567903	0.216983	4898.413086
7361.981530	1.523276	0.216983	6360.758301
7361.982468	1.033737	0.216983	7330.403320
7361.983324	0.117198	0.216983	7430.725098
7361.984278	0.085488	0.216983	7512.280762
7361.985232	0.085503	0.216983	7593.850586
7361.986121	0.085554	0.216983	7669.908203
7361.987031	0.085591	0.216983	7747.795898
7361.987939	0.085569	0.216983	7825.492187
7361.988890	0.085514	0.216983	7906.815918
7361.989776	0.085573	0.216983	7982.633301
7361.990705	0.085602	0.216983	8062.157227
7361.991658	0.085565	0.216983	8143.700684
7362.984894	1.096450	0.214812	471.473602
7362.985754	1.614873	0.214812	1860.264404
7362.986757	1.609856	0.214812	3474.949951
7362.987684	1.566962	0.214812	4927.523437
7362.988568	1.525759	0.214812	6276.294434
7362.989513	1.094810	0.214812	7310.889648
7362.990448	0.120546	0.214812	7423.599609
7362.991340	0.085466	0.214812	7499.835449
7362.992204	0.085598	0.214812	7573.792480
7362.993217	0.085503	0.214812	7660.406738
7362.994132	0.085598	0.214812	7738.729004
7362.995016	0.085591	0.214812	7814.391113
7362.995898	0.085605	0.214812	7889.895020
7362.996872	0.085532	0.214812	7973.203613
7362.997811	0.085573	0.214812	8053.556152
7362.998702	0.085598	0.214812	8129.824219
7364.052967	1.150558	0.218320	529.256653
7364.053847	1.619147	0.218320	1954.105713
7364.054709	1.611808	0.218320	3343.484131
7364.055820	1.562794	0.218320	5079.748535
7364.056730	1.519849	0.218320	6462.811035
7364.057605	1.013016	0.218320	7349.200195
7364.058577	0.111028	0.218320	7457.119141
7364.059577	0.085503	0.218320	7542.622070
7364.060466	0.085529	0.218320	7618.656738
7364.061329	0.085591	0.218320	7692.521484
7364.062401	0.085536	0.218320	7784.215820
7364.063333	0.085525	0.218320	7863.924805
7364.064205	0.085558	0.218320	7938.531250
7364.065172	0.085624	0.218320	8021.329590
7364.066185	0.085463	0.218320	8107.903320
7364.067064	0.085598	0.218320	8183.144043
7365.060604	1.144874	0.216238	560.988403
7365.061511	1.622106	0.216238	2032.238281
7365.062442	1.608391	0.216238	3529.650391
7365.063322	1.566610	0.216238	4908.267578
7365.064287	1.522621	0.216238	6377.596680
7365.065249	0.978113	0.216238	7318.541016
7365.066146	0.104000	0.216238	7411.829102
7365.067025	0.085510	0.216238	7486.992676
7365.067989	0.085529	0.216238	7569.442383
7365.068939	0.085616	0.216238	7650.777832
7365.069822	0.085576	0.216238	7726.341797
7365.070783	0.085627	0.216238	7808.629883
7365.071841	0.085594	0.216238	7899.188965
7365.072833	0.085587	0.216238	7984.091309
7365.073706	0.085525	0.216238	8058.754395
7365.074669	0.085653	0.216238	8141.238281
7366.127095	1.138502	0.214820	540.788513
7366.127984	1.620117	0.214820	1981.072754
7366.128846	1.612079	0.214820	3370.684570
7366.129796	1.568394	0.214820	4860.658203
7366.130759	1.523756	0.214820	6328.035156
7366.131659	1.099519	0.214820	7317.602539
7366.132575	0.127969	0.214820	7434.821777
7366.133513	0.085422	0.214820	7514.947754
7366.134451	0.085503	0.214820	7595.149414
7366.135341	0.085609	0.214820	7671.341309
7366.136268	0.085587	0.214820	7750.680664
7366.137223	0.085496	0.214820	7832.329102
7366.138147	0.085584	0.214820	7911.408203
7366.139011	0.085616	0.214820	7985.380859
7366.139939	0.085543	0.214820	8064.765137
7366.140882	0.085529	0.214820	8145.418457
7367.135258	1.174644	0.216439	589.671082
7367.136216	1.624647	0.216439	2146.083008
7367.137095	1.607765	0.216439	3559.308350
7367.138024	1.564036	0.216439	5012.297363
7367.139078	1.515751	0.216439	6609.898437
7367.139965	0.850521	0.216439	7364.310547
7367.140825	0.099185	0.216439	7449.609375
7367.141855	0.085591	0.216439	7537.768066
7367.142794	0.085580	0.216439	7618.127441
7367.143669	0.085565	0.216439	7692.997070
7367.144548	0.085591	0.216439	7768.231445
7367.145649	0.085584	0.216439	7862.458984
7367.146544	0.085543	0.216439	7939.020020
7367.147408	0.085584	0.216439	8012.964355
7367.148478	0.085664	0.216439	8104.625000
7367.149449	0.085540	0.216439	8187.684082
7368.202247	1.157567	0.220725	577.625977
7368.203125	1.621304	0.220725	2001.130615
7368.204024	1.608922	0.220725	3447.551758
7368.205125	1.558890	0.220725	5163.890137
7368.206089	1.514392	0.220725	6623.764160
7368.206965	0.841685	0.220725	7361.080078
7368.207981	0.092263	0.220725	7454.819336
7368.209012	0.085521	0.220725	7542.991699
7368.209907	0.085565	0.220725	7619.572754
7368.210841	0.085675	0.220725	7699.593262
7368.211904	0.085704	0.220725	7790.696777
7368.212837	0.085565	0.220725	7870.529297
7368.213696	0.085613	0.220725	7944.070801
7368.214756	0.085657	0.220725	8034.867187
7368.215767	0.085507	0.220725	8121.314453
7368.216653	0.085624	0.220725	8197.176758
7369.211325	1.089749	0.221748	462.053406
7369.212308	1.618784	0.221748	2053.318115
7369.213213	1.609080	0.221748	3509.535156
7369.214143	1.566247	0.221748	4966.145508
7369.215005	1.524979	0.221748	6280.677734
7369.215977	1.037490	0.221748	7289.118164
7369.216890	0.111123	0.221748	7390.573730
7369.217810	0.085481	0.221748	7469.216309
7369.218678	0.085565	0.221748	7543.486816
7369.219644	0.085569	0.221748	7626.146484
7369.220590	0.085562	0.221748	7707.087891
7369.221477	0.085587	0.221748	7783.003906
7369.222382	0.085536	0.221748	7860.414062
7369.223349	0.085551	0.221748	7943.141602
7369.224262	0.085466	0.221748	8021.172363
7369.225134	0.085525	0.221748	8095.750000
7370.277928	1.181895	0.227034	631.131714
7370.278943	1.626720	0.227034	2282.252441
7370.279838	1.603253	0.227034	3717.164062
7370.280703	1.561113	0.227034	5067.526855
7370.281802	1.511521	0.227034	6728.688477
7370.282726	0.673242	0.227034	7350.764160
7370.283598	0.091304	0.227034	7430.380859
7370.284583	0.085675	0.227034	7514.770996
7370.285590	0.085602	0.227034	7600.972168
7370.286477	0.085624	0.227034	7676.920410
7370.287332	0.085631	0.227034	7750.134766
7370.288378	0.085675	0.227034	7839.750977
7370.289316	0.085602	0.227034	7920.045410
7370.290189	0.085594	0.227034	7994.769531
7370.291148	0.085646	0.227034	8076.903809
7370.292165	0.085565	0.227034	8163.923828
7371.285950	1.103287	0.225374	472.206970
7371.286944	1.621703	0.225374	2084.179687
7371.287872	1.607454	0.225374	3575.896484
7371.288750	1.566332	0.225374	4951.135742
7371.289665	1.524130	0.225374	6345.714355
7371.290628	1.016235	0.225374	7324.349121
7371.291556	0.108889	0.225374	7425.398437
7371.292417	0.085474	0.225374	7498.991211
7371.293364	0.085507	0.225374	7579.965820
7371.294284	0.085540	0.225374	7658.662109
7371.295205	0.085565	0.225374	7737.467773
7371.296081	0.085492	0.225374	7812.358887
7371.297050	0.085518	0.225374	7895.225586
7371.297999	0.085529	0.225374	7976.392090
7371.298884	0.085510	0.225374	8052.068848
7371.299758	0.085543	0.225374	8126.833496
7372.352022	1.181891	0.226514	608.673767
7372.352925	1.622384	0.226514	2073.686523
7372.353850	1.608025	0.226514	3561.109619
7372.354724	1.565962	0.226514	4929.760254
7372.355721	1.520966	0.226514	6446.163086
7372.356650	0.968445	0.226514	7345.848145
7372.357510	0.108497	0.226514	7439.155762
7372.358530	0.085569	0.226514	7526.436035
7372.359432	0.085562	0.226514	7603.612305
7372.360344	0.085598	0.226514	7681.677734
7372.361226	0.085584	0.226514	7757.162598
7372.362178	0.085573	0.226514	7838.627441
7372.363118	0.085587	0.226514	7919.079590
7372.364009	0.085580	0.226514	7995.331055
7372.364980	0.085686	0.226514	8078.532227
7372.365891	0.085638	0.226514	8156.548828
7373.361163	1.162720	0.223912	587.173462
7373.362124	1.624999	0.223912	2148.797363
7373.362992	1.608102	0.223912	3544.629639
7373.364094	1.557052	0.223912	5260.500977
7373.365126	1.509064	0.223912	6817.854492
7373.366029	0.600308	0.223912	7359.932129
7373.366962	0.089806	0.223912	7443.721191
7373.368008	0.085616	0.223912	7533.275879
7373.368943	0.085551	0.223912	7613.265625
7373.369803	0.085587	0.223912	7686.870605
7373.370837	0.085686	0.223912	7775.469727
7373.371858	0.085558	0.223912	7862.824219
7373.372741	0.085616	0.223912	7938.423340
7373.373670	0.085649	0.223912	8017.991699
7373.374732	0.085620	0.223912	8108.920410
7373.375652	0.085631	0.223912	8187.701172
7374.426112	1.131661	0.229052	543.197510
7374.427038	1.621018	0.229052	2044.260254
7374.427907	1.610043	0.229052	3443.387207
7374.428801	1.568210	0.229052	4845.367187
7374.429751	1.523419	0.229052	6292.615234
7374.430714	1.025596	0.229052	7280.263672
7374.431602	0.112690	0.229052	7380.333008
7374.432515	0.085444	0.229052	7458.343750
7374.433468	0.085554	0.229052	7539.876953
7374.434386	0.085558	0.229052	7618.418945
7374.435252	0.085525	0.229052	7692.483398
7374.436212	0.085565	0.229052	7774.625977
7374.437118	0.085507	0.229052	7852.094727
7374.438038	0.085477	0.229052	7930.733887
7374.438895	0.085510	0.229052	8004.016113
7374.439859	0.085558	0.229052	8086.494141
7375.436743	1.091858	0.227078	467.315186
7375.437676	1.615653	0.227078	1974.719482
7375.438647	1.608142	0.227078	3536.225586
7375.439561	1.565537	0.227078	4967.126465
7375.440441	1.524239	0.227078	6308.457031
7375.441470	0.931469	0.227078	7266.937988
7375.442376	0.100858	0.227078	7358.315430
7375.443248	0.085485	0.227078	7432.857910
7375.444106	0.085657	0.227078	7506.351562
7375.445146	0.085587	0.227078	7595.362305
7375.446029	0.085587	0.227078	7670.935547
7375.446900	0.085521	0.227078	7745.424316
7375.447892	0.085594	0.227078	7830.333984
7375.448801	0.085605	0.227078	7908.149414
7375.449706	0.085635	0.227078	7985.648926
7375.450576	0.085569	0.227078	8060.093750
7376.502218	1.104957	0.231074	481.761414
7376.503080	1.615291	0.231074	1874.141846
7376.504182	1.605297	0.231074	3643.178711
7376.505147	1.560114	0.231074	5148.688477
7376.506012	1.519347	0.231074	6462.923340
7376.507023	0.801958	0.231074	7273.703125
7376.508088	0.089718	0.231074	7369.252930
7376.508964	0.085551	0.231074	7444.195312
7376.509829	0.085598	0.231074	7518.237793
7376.510934	0.085602	0.231074	7612.827637
7376.511889	0.085521	0.231074	7694.500488
7376.512751	0.085488	0.231074	7768.191406
7376.513758	0.085609	0.231074	7854.399902
7376.514787	0.085558	0.231074	7942.438965
7376.515674	0.085499	0.231074	8018.276855
7376.516579	0.085551	0.231074	8095.700195
7377.511868	1.094026	0.232073	463.867004
7377.512817	1.619308	0.232073	2000.590088
7377.513747	1.609453	0.232073	3497.381348
7377.514638	1.567793	0.232073	4894.285156
7377.515556	1.525367	0.232073	6294.572266
7377.516522	1.052930	0.232073	7311.702148
7377.517450	0.109530	0.232073	7413.346191
7377.518311	0.085477	0.232073	7486.942383
7377.519317	0.085558	0.232073	7573.013672
7377.520262	0.085543	0.232073	7653.852051
7377.521133	0.085514	0.232073	7728.334473
7377.522209	0.085547	0.232073	7820.382812
7377.523149	0.085554	0.232073	7900.803711
7377.524075	0.085532	0.232073	7980.006348
7377.524934	0.085573	0.232073	8053.513184
7377.525879	0.085613	0.232073	8134.417480
7378.575824	1.125765	0.227573	503.217163
7378.576716	1.618627	0.227573	1947.032227
7378.577735	1.607758	0.227573	3585.337158
7378.578650	1.563673	0.227573	5016.098145
7378.579578	1.521072	0.227573	6427.652832
7378.580452	1.009856	0.227573	7310.266602
7378.581493	0.098273	0.227573	7412.568359
7378.582372	0.085529	0.227573	7487.748047
7378.583279	0.085547	0.227573	7565.338867
7378.584147	0.085569	0.227573	7639.612793
7378.585124	0.085591	0.227573	7723.234863
7378.586047	0.085573	0.227573	7802.218262
7378.586931	0.085613	0.227573	7877.899902
7378.587854	0.085532	0.227573	7956.846191
7378.588778	0.085536	0.227573	8035.881348
7378.589704	0.085507	0.227573	8115.060547
7379.586614	1.196858	0.230635	653.484436
7379.587679	1.626266	0.230635	2385.457520
7379.588589	1.599738	0.230635	3841.218750
7379.589454	1.557111	0.230635	5188.119141
7379.590565	1.507295	0.230635	6862.723633
7379.591533	0.469849	0.230635	7317.537109
7379.592394	0.087708	0.230635	7393.053223
7379.593460	0.085723	0.230635	7484.433594
7379.594486	0.085547	0.230635	7572.204590
7379.595365	0.085587	0.230635	7647.435547
7379.596284	0.085616	0.230635	7726.117187
7379.597344	0.085543	0.230635	7816.792969
7379.598289	0.085510	0.230635	7897.600098
7379.599148	0.085638	0.230635	7971.163574
7379.600159	0.085726	0.230635	8057.833008
7380.651459	1.090565	0.235396	466.761902
7380.652371	1.617656	0.235396	1942.064453
7380.653334	1.608475	0.235396	3491.026367
7380.654267	1.565577	0.235396	4951.709961
7380.655150	1.523496	0.235396	6296.957031
7380.656128	1.012515	0.235396	7287.196289
7380.657059	0.106058	0.235396	7385.936523
7380.657923	0.085404	0.235396	7459.725586
7380.658880	0.085411	0.235396	7541.464355
7380.659789	0.085551	0.235396	7619.229980
7380.660709	0.085525	0.235396	7697.913086
7380.661569	0.085562	0.235396	7771.496094
7380.662534	0.085507	0.235396	7854.009766
7380.663456	0.085452	0.235396	7932.796387
7380.664349	0.085576	0.235396	8009.215820
7380.665264	0.085529	0.235396	8087.474609
7381.662151	1.118254	0.235372	486.440613
7381.663072	1.619630	0.235372	1978.119873
7381.663939	1.611317	0.235372	3375.131836
7381.664947	1.565848	0.235372	4953.506836
7381.665875	1.522819	0.235372	6366.682617
7381.666746	1.104983	0.235372	7329.122559
7381.667780	0.103418	0.235372	7436.056641
7381.668671	0.085521	0.235372	7512.255859
7381.669596	0.085598	0.235372	7591.434082
7381.670460	0.085609	0.235372	7665.400391
7381.671439	0.085562	0.235372	7749.165039
7381.672339	0.085605	0.235372	7826.209961
7381.673224	0.085624	0.235372	7901.986816
7381.674135	0.085591	0.235372	7979.959961
7381.675091	0.085587	0.235372	8061.781250
7381.676011	0.085525	0.235372	8140.464355
7382.727192	1.179236	0.238671	591.976379
7382.728126	1.623662	0.238671	2108.476807
7382.729007	1.608457	0.238671	3525.527344
7382.729995	1.563142	0.238671	5069.911621
7382.730999	1.515817	0.238671	6591.791504
7382.731885	0.867799	0.238671	7360.661621
7382.732742	0.100521	0.238671	7446.808105
7382.733819	0.085580	0.238671	7538.977539
7382.734742	0.085609	0.238671	7617.994629
7382.735605	0.085558	0.238671	7691.831055
7382.736561	0.085690	0.238671	7773.750488
7382.737589	0.085635	0.238671	7861.783203
7382.738481	0.085551	0.238671	7938.094238
7382.739342	0.085609	0.238671	8011.803711
7382.740392	0.085613	0.238671	8101.697266
7382.741341	0.085532	0.238671	8182.867187
7383.736315	1.125494	0.235283	535.735291
7383.737209	1.620820	0.235283	1984.748535
7383.738081	1.611420	0.235283	3389.906494
7383.739040	1.567064	0.235283	4892.721191
7383.739976	1.522936	0.235283	6318.188965
7383.740911	1.049110	0.235283	7299.106934
7383.741773	0.120201	0.235283	7402.720703
7383.742743	0.085507	0.235283	7485.662109
7383.743672	0.085455	0.235283	7565.050293
7383.744560	0.085525	0.235283	7640.996582
7383.745471	0.085525	0.235283	7718.909668
7383.746427	0.085543	0.235283	7800.688965
7383.747348	0.085514	0.235283	7879.447266
7383.748225	0.085543	0.235283	7954.468750
7383.749166	0.085496	0.235283	8034.919922
7383.750114	0.085525	0.235283	8115.997559
7384.801755	1.121814	0.244045	501.450806
7384.802666	1.619802	0.244045	1977.090698
7384.803551	1.611786	0.244045	3403.521240
7384.804469	1.569921	0.244045	4844.708496
7384.805420	1.524723	0.244045	6294.719727
7384.806348	1.097604	0.244045	7313.295898
7384.807210	0.128423	0.244045	7423.996582
7384.808174	0.085481	0.244045	7506.400391
7384.809124	0.085580	0.244045	7587.701172
7384.809998	0.085521	0.244045	7662.446777
7384.810901	0.085558	0.244045	7739.705566
7384.811864	0.085496	0.244045	7822.037598
7384.812782	0.085518	0.244045	7900.542969
7384.813660	0.085540	0.244045	7975.646484
7384.814572	0.085547	0.244045	8053.665039
7384.815523	0.085532	0.244045	8135.006348
7385.811908	1.089093	0.238184	471.577301
7385.812772	1.615089	0.238184	1867.014160
7385.813839	1.607728	0.238184	3582.460205
7385.814718	1.565493	0.238184	4958.528809
7385.815590	1.524836	0.238184	6288.186035
7385.816500	1.069757	0.238184	7261.665039
7385.817507	0.105927	0.238184	7368.333008
7385.818438	0.085638	0.238184	7448.062500
7385.819307	0.085594	0.238184	7522.444336
7385.820407	0.085664	0.238184	7616.674805
7385.821307	0.085576	0.238184	7693.693359
7385.822228	0.085547	0.238184	7772.481934
7385.823092	0.085704	0.238184	7846.530273
7385.824144	0.085551	0.238184	7936.529297
7385.825024	0.085532	0.238184	8011.797852
7385.825887	0.085624	0.238184	8085.691406
7386.876953	1.179609	0.244629	600.421204
7386.877843	1.622659	0.244629	2044.587402
7386.878710	1.608391	0.244629	3439.062500
7386.879831	1.557986	0.244629	5185.564453
7386.880807	1.513323	0.244629	6662.567383
7386.881682	0.804679	0.244629	7366.661621
7386.882751	0.089586	0.244629	7462.429199
7386.883782	0.085649	0.244629	7550.733887
7386.884676	0.085591	0.244629	7627.251953
7386.885608	0.085657	0.244629	7707.083984
7386.886669	0.085649	0.244629	7797.958008
7386.887614	0.085594	0.244629	7878.844727
7386.888476	0.085668	0.244629	7952.690430
7386.889540	0.085664	0.244629	8043.836914
7386.890556	0.085521	0.244629	8130.726562
7386.891435	0.085580	0.244629	8205.951172
7387.887079	1.104280	0.239562	517.907227
7387.888021	1.621461	0.239562	2045.323608
7387.888923	1.608289	0.239562	3496.000000
7387.889826	1.566544	0.239562	4910.589355
7387.890749	1.522972	0.239562	6316.292969
7387.891718	0.993226	0.239562	7278.729492
7387.892645	0.104696	0.239562	7375.782715
7387.893512	0.085452	0.239562	7449.869141
7387.894478	0.085554	0.239562	7532.514648
7387.895429	0.085576	0.239562	7613.897461
7387.896315	0.085562	0.239562	7689.705078
7387.897220	0.085551	0.239562	7767.128418
7387.898155	0.085540	0.239562	7847.107910
7387.899099	0.085521	0.239562	7927.839844
7387.899971	0.085573	0.239562	8002.458984
7387.900880	0.085554	0.239562	8080.227539
7388.952519	1.099039	0.248396	472.586914
7388.953563	1.622791	0.248396	2166.780273
7388.954449	1.606915	0.248396	3590.507324
7388.955320	1.565819	0.248396	4954.335937
7388.956246	1.522515	0.248396	6364.184570
7388.957230	0.953840	0.248396	7302.763672
7388.958147	0.100946	0.248396	7395.331055
7388.959034	0.085481	0.248396	7471.152832
7388.960023	0.085624	0.248396	7555.834961
7388.960943	0.085584	0.248396	7634.571777
7388.961859	0.085565	0.248396	7712.949707
7388.962721	0.085616	0.248396	7786.750977
7388.963763	0.085594	0.248396	7875.940430
7388.964642	0.085580	0.248396	7951.165039
7388.965509	0.085569	0.248396	8025.353027
7388.966497	0.085682	0.248396	8110.007324
7389.961146	1.083519	0.236609	456.161591
7389.962110	1.615279	0.236609	2013.291016
7389.963162	1.603070	0.236609	3699.720703
7389.964089	1.559462	0.236609	5145.341797
7389.964958	1.518036	0.236609	6464.515137
7389.966050	0.693743	0.236609	7222.082031
7389.967047	0.087729	0.236609	7309.548340
7389.967938	0.085529	0.236609	7385.754395
7389.968912	0.085686	0.236609	7469.212402
7389.969965	0.085576	0.236609	7559.324219
7389.970867	0.085518	0.236609	7636.460937
7389.971730	0.085609	0.236609	7710.341797
7389.972819	0.085594	0.236609	7803.554199
7389.973791	0.085499	0.236609	7886.659668
7389.974653	0.085562	0.236609	7960.413574
7389.975667	0.085514	0.236609	8047.124512
7391.027693	1.128981	0.247622	537.394775
7391.028631	1.622029	0.247622	2058.857910
7391.029551	1.607871	0.247622	3538.099121
7391.030430	1.566658	0.247622	4915.191406
7391.031381	1.522921	0.247622	6363.489258
7391.032317	0.996984	0.247622	7296.666016
7391.033243	0.106245	0.247622	7395.048828
7391.034109	0.085521	0.247622	7469.110352
7391.035068	0.085580	0.247622	7551.181641
7391.036009	0.085540	0.247622	7631.674316
7391.036889	0.085532	0.247622	7706.942871
7391.037770	0.085587	0.247622	7782.345215
7391.038724	0.085496	0.247622	7863.908203
7391.039665	0.085536	0.247622	7944.397461
7391.040560	0.085573	0.247622	8020.984863
7391.041468	0.085594	0.247622	8098.704590
7392.036343	1.122294	0.241825	545.434753
7392.037279	1.622893	0.241825	2064.462646
7392.038209	1.607087	0.241825	3559.053955
7392.039090	1.565804	0.241825	4938.527832
7392.040045	1.521775	0.241825	6391.822754
7392.041000	0.950636	0.241825	7299.680176
7392.041923	0.102949	0.241825	7394.702148
7392.042784	0.085540	0.241825	7468.351562
7392.043747	0.085609	0.241825	7550.792969
7392.044649	0.085627	0.241825	7628.028809
7392.045564	0.085591	0.241825	7706.344238
7392.046439	0.085594	0.241825	7781.239258
7392.047407	0.085605	0.241825	7864.105469
7392.048331	0.085584	0.241825	7943.184570
7392.049194	0.085565	0.241825	8017.027344
7392.050173	0.085514	0.241825	8100.745605
7393.102907	1.207467	0.248960	668.936707
7393.103834	1.625372	0.248960	2175.656738
7393.104718	1.606703	0.248960	3595.982178
7393.105714	1.560582	0.248960	5150.322266
7393.106718	1.513070	0.248960	6669.444824
7393.107615	0.772676	0.248960	7362.535156
7393.108488	0.094508	0.248960	7445.040527
7393.109494	0.085576	0.248960	7531.130371
7393.110433	0.085558	0.248960	7611.469238
7393.111354	0.085605	0.248960	7690.312012
7393.112215	0.085540	0.248960	7763.961426
7393.113242	0.085602	0.248960	7851.874512
7393.114116	0.085620	0.248960	7926.706543
7393.114989	0.085540	0.248960	8001.382812
7393.115931	0.085697	0.248960	8082.109375
7393.116898	0.085573	0.248960	8164.857910
7394.110901	1.081919	0.246128	454.405975
7394.111905	1.618660	0.246128	2079.540283
7394.112968	1.601495	0.246128	3781.929687
7394.113865	1.558586	0.246128	5179.981934
7394.114752	1.516033	0.246128	6524.703125
7394.115859	0.626268	0.246128	7217.982422
7394.116805	0.087883	0.246128	7301.120117
7394.117670	0.085492	0.246128	7375.070801
7394.118698	0.085631	0.246128	7463.099609
7394.119728	0.085507	0.246128	7551.171387
7394.120613	0.085613	0.246128	7626.938477
7394.121535	0.085653	0.246128	7705.910645
7394.122597	0.085605	0.246128	7796.823730
7394.123532	0.085594	0.246128	7876.854492
7394.124394	0.085624	0.246128	7950.662109
7394.125440	0.085609	0.246128	8040.209473
7395.178474	1.154670	0.254080	534.612366
7395.179361	1.619773	0.254080	1971.350830
7395.180228	1.611449	0.254080	3368.477051
7395.181210	1.566859	0.254080	4907.132812
7395.182155	1.523134	0.254080	6346.494141
7395.183055	1.091415	0.254080	7328.767578
7395.183970	0.125332	0.254080	7443.446289
7395.184927	0.085536	0.254080	7525.304199
7395.185850	0.085503	0.254080	7604.223633
7395.186712	0.085624	0.254080	7678.031250
7395.187667	0.085543	0.254080	7759.725098
7395.188612	0.085540	0.254080	7840.560059
7395.189480	0.085576	0.254080	7914.840332
7395.190526	0.085540	0.254080	8004.314941
7395.191473	0.085536	0.254080	8085.317383
7395.192390	0.085613	0.254080	8163.824219
7396.185015	1.084471	0.244210	458.731384
7396.186044	1.621992	0.244210	2127.761230
7396.186952	1.606945	0.244210	3586.866943
7396.187826	1.565636	0.244210	4955.232910
7396.188698	1.523522	0.244210	6283.743652
7396.189750	0.929366	0.244210	7261.437012
7396.190642	0.103253	0.244210	7353.539062
7396.191514	0.085510	0.244210	7428.104004
7396.192511	0.085576	0.244210	7513.423340
7396.193439	0.085518	0.244210	7592.783691
7396.194334	0.085547	0.244210	7669.348145
7396.195207	0.085605	0.244210	7744.081543
7396.196221	0.085587	0.244210	7830.866699
7396.197115	0.085576	0.244210	7907.371582
7396.197992	0.085609	0.244210	7982.450684
7396.198924	0.085573	0.244210	8062.204102
7397.253560	1.078715	0.249882	450.902710
7397.254455	1.613357	0.249882	1894.857178
7397.255553	1.604227	0.249882	3656.298828
7397.256515	1.559337	0.249882	5156.380859
7397.257386	1.518391	0.249882	6478.899414
7397.258433	0.738940	0.249882	7252.569824
7397.259456	0.088542	0.249882	7343.148926
7397.260345	0.085580	0.249882	7419.229492
7397.261295	0.085594	0.249882	7500.544434
7397.262345	0.085704	0.249882	7590.534180
7397.263282	0.085569	0.249882	7670.712402
7397.264143	0.085580	0.249882	7744.396484
7397.265192	0.085646	0.249882	7834.238770
7397.266189	0.085558	0.249882	7919.540039
7397.267073	0.085547	0.249882	7995.163574
7397.268041	0.085657	0.249882	8078.079102
7398.261202	1.120485	0.251767	491.892731
7398.262129	1.620703	0.251767	1994.284424
7398.263008	1.611522	0.251767	3410.812500
7398.263951	1.567247	0.251767	4888.726562
7398.264912	1.522661	0.251767	6352.003906
7398.265844	1.038142	0.251767	7319.552246
7398.266703	0.118916	0.251767	7421.701172
7398.267652	0.085514	0.251767	7502.854004
7398.268593	0.085543	0.251767	7583.350098
7398.269473	0.085565	0.251767	7658.647461
7398.270399	0.085584	0.251767	7737.897949
7398.271339	0.085616	0.251767	7818.377441
7398.272269	0.085558	0.251767	7897.946289
7398.273133	0.085540	0.251767	7971.852539
7398.274102	0.085594	0.251767	8054.793457
7398.275055	0.085507	0.251767	8136.281250
7399.329330	1.204882	0.262048	655.455566
7399.330229	1.622725	0.262048	2114.285156
7399.331148	1.607076	0.262048	3591.188477
7399.332013	1.565592	0.262048	4945.425781
7399.332977	1.521248	0.262048	6411.908203
7399.333916	0.975362	0.262048	7327.773437
7399.334796	0.107032	0.262048	7421.961914
7399.335665	0.085573	0.262048	7496.324219
7399.336616	0.085562	0.262048	7577.693359
7399.337567	0.085605	0.262048	7659.104004
7399.338458	0.085598	0.262048	7735.372070
7399.339378	0.085477	0.262048	7814.011230
7399.340329	0.085554	0.262048	7895.373047
7399.341252	0.085580	0.262048	7974.363281
7399.342118	0.085547	0.262048	8048.446777
7399.343041	0.085584	0.262048	8127.440430
7400.336338	1.113168	0.255993	488.680603
7400.337212	1.616572	0.255993	1901.564697
7400.338197	1.609596	0.255993	3487.016602
7400.339219	1.561813	0.255993	5083.189453
7400.340101	1.520570	0.255993	6424.332031
7400.340969	1.032715	0.255993	7320.728516
7400.342036	0.099668	0.255993	7427.074219
7400.342951	0.085499	0.255993	7505.306152
7400.343825	0.085580	0.255993	7580.103027
7400.344765	0.085624	0.255993	7660.589355
7400.345800	0.085569	0.255993	7749.153320
7400.346696	0.085558	0.255993	7825.812988
7400.347560	0.085551	0.255993	7899.728516
7400.348608	0.085686	0.255993	7989.527344
7400.349565	0.085529	0.255993	8071.377930
7400.350440	0.085569	0.255993	8146.250488
7401.404481	1.202589	0.261210	673.449829
7401.405546	1.625896	0.261210	2405.029053
7401.406438	1.599792	0.261210	3832.043945
7401.407315	1.556338	0.261210	5196.952148
7401.408432	1.506456	0.261210	6879.664062
7401.409396	0.463982	0.261210	7326.942871
7401.410255	0.087444	0.261210	7402.057129
7401.411268	0.085540	0.261210	7488.708496
7401.412308	0.085514	0.261210	7577.643066
7401.413193	0.085576	0.261210	7653.377930
7401.414096	0.085565	0.261210	7730.643066
7401.415172	0.085536	0.261210	7822.679687
7401.416117	0.085514	0.261210	7903.490234
7401.416982	0.085525	0.261210	7977.469238
7401.418030	0.085609	0.261210	8067.187500
7402.409944	1.140084	0.250410	510.757751
7402.410872	1.621033	0.250410	2015.076172
7402.411759	1.610760	0.250410	3443.820801
7402.412677	1.567793	0.250410	4883.054687
7402.413639	1.523148	0.250410	6348.323242
7402.414577	1.042716	0.250410	7326.390625
7402.415444	0.118693	0.250410	7429.297363
7402.416415	0.085547	0.250410	7512.363281
7402.417362	0.085569	0.250410	7593.396973
7402.418252	0.085605	0.250410	7669.585937
7402.419130	0.085536	0.250410	7744.686523
7402.420080	0.085525	0.250410	7825.935059
7402.421014	0.085521	0.250410	7905.812012
7402.421902	0.085529	0.250410	7981.761230
7402.422818	0.085657	0.250410	8060.222656
7402.423765	0.085562	0.250410	8141.249512
7403.479506	1.116097	0.264892	489.966766
7403.480380	1.617129	0.264892	1903.337402
7403.481256	1.613708	0.264892	3316.946045
7403.482232	1.568910	0.264892	4848.202148
7403.483150	1.525565	0.264892	6248.670898
7403.484037	1.185450	0.264892	7300.165527
7403.484984	0.145334	0.264892	7437.797363
7403.485931	0.085507	0.264892	7518.771973
7403.486856	0.085584	0.264892	7597.936523
7403.487727	0.085598	0.264892	7672.492676
7403.488664	0.085547	0.264892	7752.649902
7403.489586	0.085558	0.264892	7831.534180
7403.490480	0.085580	0.264892	7908.042480
7403.491351	0.085649	0.264892	7982.643066
7403.492403	0.085580	0.264892	8072.672852
7403.493300	0.085598	0.264892	8149.454590
7404.486086	1.104957	0.255518	480.656433
7404.486952	1.615009	0.255518	1879.253906
7404.488063	1.603945	0.255518	3661.237061
7404.489041	1.558671	0.255518	5185.617187
7404.489916	1.517915	0.255518	6513.792969
7404.490996	0.667456	0.255518	7234.645508
7404.492028	0.087473	0.255518	7324.917969
7404.492915	0.085580	0.255518	7400.827148
7404.493836	0.085646	0.255518	7479.707031
7404.494891	0.085660	0.255518	7570.078613
7404.495832	0.085536	0.255518	7650.567871
7404.496696	0.085620	0.255518	7724.543457
7404.497730	0.085638	0.255518	7813.093750
7404.498755	0.085547	0.255518	7900.779297
7404.499639	0.085554	0.255518	7976.409180
7404.500596	0.085627	0.255518	8058.354492
7405.555181	1.151741	0.272948	535.559448
7405.556068	1.619117	0.272948	1971.716675
7405.557079	1.606934	0.272948	3596.326660
7405.558124	1.557631	0.272948	5224.050781
7405.559066	1.513564	0.272948	6649.828613
7405.559936	0.826018	0.272948	7368.464355
7405.560991	0.090850	0.272948	7464.310547
7405.562002	0.085481	0.272948	7550.731934
7405.562879	0.085499	0.272948	7625.714844
7405.563806	0.085602	0.272948	7705.067871
7405.564878	0.085514	0.272948	7796.738770
7405.565793	0.085492	0.272948	7874.963867
7405.566660	0.085576	0.272948	7949.158203
7405.567712	0.085635	0.272948	8039.246094
7405.568720	0.085543	0.272948	8125.473633
7405.569602	0.085569	0.272948	8200.945312
7406.561818	1.156465	0.262350	597.892334
7406.562718	1.621805	0.262350	2057.517090
7406.563637	1.608120	0.262350	3535.379395
7406.564502	1.566980	0.262350	4890.817383
7406.565452	1.521874	0.262350	6336.597656
7406.566403	0.988674	0.262350	7276.827148
7406.567327	0.105447	0.262350	7374.259766
7406.568188	0.085514	0.262350	7447.887207
7406.569153	0.085591	0.262350	7530.482422
7406.570103	0.085584	0.262350	7611.786621
7406.570997	0.085562	0.262350	7688.278809
7406.571905	0.085631	0.262350	7766.031738
7406.572840	0.085503	0.262350	7845.977051
7406.573760	0.085562	0.262350	7924.693848
7406.574629	0.085616	0.262350	7999.094727
7406.575537	0.085551	0.262350	8076.774414
7407.628309	1.167997	0.261903	586.334351
7407.629196	1.621190	0.261903	2024.330078
7407.630071	1.610548	0.261903	3433.559570
7407.630960	1.567899	0.261903	4827.421875
7407.632001	1.520724	0.261903	6410.495117
7407.632889	1.022186	0.261903	7318.196289
7407.633760	0.115781	0.261903	7419.041992
7407.634755	0.085605	0.261903	7504.219238
7407.635674	0.085525	0.261903	7582.816406
7407.636589	0.085543	0.261903	7661.088379
7407.637453	0.085653	0.261903	7735.092773
7407.638487	0.085547	0.261903	7823.548340
7407.639376	0.085565	0.261903	7899.615723
7407.640251	0.085587	0.261903	7974.504395
7407.641222	0.085635	0.261903	8057.655762
7407.642185	0.085587	0.261903	8140.076172
7408.636351	1.092378	0.254209	463.168243
7408.637402	1.621988	0.254209	2167.878174
7408.638415	1.600840	0.254209	3789.528809
7408.639306	1.558678	0.254209	5178.310547
7408.640271	1.514246	0.254209	6639.557617
7408.641339	0.577280	0.254209	7256.092773
7408.642259	0.087605	0.254209	7336.689453
7408.643120	0.085573	0.254209	7410.367187
7408.644196	0.085693	0.254209	7502.573242
7408.645178	0.085547	0.254209	7586.580078
7408.646059	0.085540	0.254209	7661.940430
7408.647036	0.085649	0.254209	7745.620117
7408.648087	0.085598	0.254209	7835.583984
7408.648981	0.085485	0.254209	7912.007324
7408.649837	0.085616	0.254209	7985.294922
7408.650923	0.085635	0.254209	8078.294434
7409.702903	1.127728	0.266728	533.415466
7409.703837	1.621893	0.266728	2048.263916
7409.704725	1.609200	0.266728	3477.233887
7409.705647	1.567255	0.266728	4922.242676
7409.706578	1.522225	0.266728	6339.434570
7409.707526	1.013097	0.266728	7299.850586
7409.708409	0.113258	0.266728	7399.857422
7409.709335	0.085536	0.266728	7479.063477
7409.710284	0.085594	0.266728	7560.292480
7409.711187	0.085576	0.266728	7637.567871
7409.712063	0.085525	0.266728	7712.487793
7409.712989	0.085532	0.266728	7791.690430
7409.713915	0.085605	0.266728	7870.960937
7409.714844	0.085551	0.266728	7950.437500
7409.715704	0.085518	0.266728	8023.982422
7409.716671	0.085529	0.266728	8106.688477
7410.711572	1.198099	0.261681	615.822998
7410.712477	1.622571	0.261681	2084.249512
7410.713399	1.607380	0.261681	3566.254395
7410.714268	1.565874	0.261681	4926.999023
7410.715267	1.520914	0.261681	6446.392578
7410.716203	0.955752	0.261681	7340.976562
7410.717078	0.106824	0.261681	7434.447266
7410.717991	0.085543	0.261681	7512.548340
7410.718917	0.085525	0.261681	7591.744629
7410.719867	0.085518	0.261681	7672.986328
7410.720754	0.085576	0.261681	7748.892578
7410.721661	0.085547	0.261681	7826.483398
7410.722615	0.085609	0.261681	7908.154297
7410.723535	0.085510	0.261681	7986.823730
7410.724394	0.085525	0.261681	8060.289551
7410.725359	0.085569	0.261681	8142.863281
7411.778514	1.103628	0.274656	484.492645
7411.779384	1.616155	0.274656	1890.547363
7411.780247	1.613419	0.274656	3282.928223
7411.781282	1.566793	0.274656	4904.559082
7411.782181	1.524536	0.274656	6275.117187
7411.783055	1.170439	0.274656	7298.081055
7411.783992	0.143185	0.274656	7432.245117
7411.784969	0.085466	0.274656	7515.745605
7411.785878	0.085580	0.274656	7593.537598
7411.786759	0.085591	0.274656	7668.942871
7411.787765	0.085635	0.274656	7755.091309
7411.788670	0.085565	0.274656	7832.527832
7411.789585	0.085591	0.274656	7910.843262
7411.790447	0.085653	0.274656	7984.676270
7411.791469	0.085573	0.274656	8072.131348
7411.792368	0.085598	0.274656	8149.083984
7412.787725	1.165851	0.268731	581.759521
7412.788621	1.621769	0.268731	2034.864380
7412.789482	1.608512	0.268731	3419.792969
7412.790598	1.558788	0.268731	5159.400391
7412.791567	1.514037	0.268731	6626.501953
7412.792435	0.848958	0.268731	7363.396973
7412.793494	0.091816	0.268731	7460.630371
7412.794529	0.085463	0.268731	7549.083984
7412.795397	0.085488	0.268731	7623.287598
7412.796321	0.085620	0.268731	7702.400391
7412.797391	0.085580	0.268731	7793.970703
7412.798334	0.085554	0.268731	7874.648437
7412.799201	0.085551	0.268731	7948.820801
7412.800232	0.085653	0.268731	8037.128906
7412.801260	0.085543	0.268731	8125.067383
7412.802151	0.085562	0.268731	8201.302734
