time (s)	coil I (A)	last det (V)	int current (uC)
6348.395994	1.130596	0.166041	504.245728
6348.396859	1.616986	0.166041	1902.938721
6348.397916	1.606421	0.166041	3600.925537
6348.398798	1.564838	0.166041	4981.112305
6348.399671	1.524064	0.166041	6311.620117
6348.400666	1.479159	0.166041	7783.383301
6348.401584	1.438832	0.166041	9104.230469
6348.402499	1.401449	0.166041	10386.556641
6348.403382	1.365652	0.166041	11592.427734
6348.404426	1.325779	0.166041	12976.541016
6348.405327	1.199004	0.166041	14056.843750
6348.406212	0.206752	0.166041	14239.819336
6348.407173	0.085554	0.166041	14322.037109
6348.408127	0.085529	0.166041	14403.631836
6348.409046	0.085569	0.166041	14482.269531
6348.409911	0.085638	0.166041	14556.346680
6348.410950	0.085668	0.166041	14645.355469
6348.411828	0.085598	0.166041	14720.510742
6348.412692	0.085704	0.166041	14794.559570
6348.413601	0.085627	0.166041	14872.394531
6348.414591	0.085580	0.166041	14957.118164
6349.394392	1.129636	0.167289	510.595551
6349.395268	1.617843	0.167289	1927.826050
6349.396254	1.608874	0.167289	3514.176270
6349.397323	1.559407	0.167289	5181.182129
6349.398233	1.516516	0.167289	6561.211914
6349.399101	1.475625	0.167289	7842.054687
6349.400199	1.430446	0.167289	9412.683594
6349.401165	1.390283	0.167289	10755.697266
6349.402049	1.355907	0.167289	11954.319336
6349.403058	1.317085	0.167289	13283.257812
6349.404124	0.778978	0.167289	14113.648437
6349.405014	0.095405	0.167289	14198.559570
6349.405909	0.085631	0.167289	14275.199219
6349.406988	0.085726	0.167289	14367.698242
6349.407937	0.085594	0.167289	14448.927734
6349.408795	0.085616	0.167289	14522.386719
6349.409818	0.085723	0.167289	14610.081055
6349.410840	0.085649	0.167289	14697.615234
6349.411718	0.085620	0.167289	14772.790039
6349.412613	0.085679	0.167289	14849.472656
6349.413707	0.085686	0.167289	14943.212891
6350.475198	1.085310	0.189485	459.086182
6350.476201	1.617169	0.189485	2081.106934
6350.477247	1.602587	0.189485	3757.412598
6350.478149	1.559392	0.189485	5163.984375
6350.479012	1.517388	0.189485	6473.490234
6350.480111	1.469930	0.189485	8088.943848
6350.481080	1.428292	0.189485	9472.958984
6350.481956	1.392070	0.189485	10692.412109
6350.482964	1.352534	0.189485	12055.766602
6350.484034	1.311683	0.189485	13459.267578
6350.484934	0.800720	0.189485	14179.916016
6350.485847	0.098958	0.189485	14270.264648
6350.486926	0.085580	0.189485	14362.605469
6350.487874	0.085532	0.189485	14443.690430
6350.488741	0.085510	0.189485	14517.828125
6350.489777	0.085715	0.189485	14606.628906
6350.490807	0.085569	0.189485	14694.764648
6350.491692	0.085624	0.189485	14770.541992
6350.492639	0.085649	0.189485	14851.652344
6350.493696	0.085609	0.189485	14942.141602
6350.494635	0.085551	0.189485	15022.473633
6351.469071	1.182671	0.165654	586.604797
6351.470001	1.622589	0.165654	2095.612549
6351.470875	1.609164	0.165654	3502.021729
6351.471799	1.565698	0.165654	4948.727051
6351.472756	1.521394	0.165654	6404.701172
6351.473678	1.479595	0.165654	7768.887695
6351.474555	1.441381	0.165654	9032.978516
6351.475528	1.402357	0.165654	10397.471680
6351.476450	1.364099	0.165654	11655.170898
6351.477389	1.328375	0.165654	12902.515625
6351.478258	1.235852	0.165654	13976.470703
6351.479258	0.217375	0.165654	14193.845703
6351.480210	0.085503	0.165654	14275.244141
6351.481100	0.085657	0.165654	14351.478516
6351.482028	0.085635	0.165654	14430.947266
6351.482949	0.085616	0.165654	14509.799805
6351.483838	0.085587	0.165654	14585.886719
6351.484696	0.085558	0.165654	14659.294922
6351.485674	0.085616	0.165654	14743.027344
6351.486622	0.085562	0.165654	14824.139648
6351.487513	0.085580	0.165654	14900.391602
6352.547799	1.120064	0.184083	481.627319
6352.548741	1.620809	0.184083	2008.429687
6352.549671	1.609050	0.184083	3504.846436
6352.550539	1.567269	0.184083	4865.236328
6352.551524	1.522423	0.184083	6364.823242
6352.552466	1.480411	0.184083	7759.371094
6352.553361	1.441545	0.184083	9049.554687
6352.554274	1.403760	0.184083	10331.187500
6352.555214	1.365421	0.184083	11614.683594
6352.556155	1.328785	0.184083	12865.070312
6352.557045	1.269210	0.184083	13994.666992
6352.557962	0.263225	0.184083	14236.043945
6352.558912	0.085664	0.184083	14317.424805
6352.559833	0.085697	0.184083	14396.351562
6352.560695	0.085584	0.184083	14470.125000
6352.561672	0.085594	0.184083	14553.750977
6352.562622	0.085616	0.184083	14635.086914
6352.563509	0.085554	0.184083	14710.973633
6352.564391	0.085598	0.184083	14786.470703
6352.565324	0.085591	0.184083	14866.327148
6352.566263	0.085620	0.184083	14946.724609
6353.545163	1.100482	0.172003	479.810242
6353.546025	1.615170	0.172003	1872.086426
6353.547081	1.607838	0.172003	3569.963379
6353.547961	1.565819	0.172003	4947.884277
6353.548836	1.524792	0.172003	6282.077637
6353.549725	1.482891	0.172003	7600.367187
6353.550745	1.439641	0.172003	9068.800781
6353.551676	1.401416	0.172003	10373.519531
6353.552560	1.366443	0.172003	11581.455078
6353.553576	1.327852	0.172003	12930.552734
6353.554498	1.191584	0.172003	14029.193359
6353.555430	0.192858	0.172003	14208.936523
6353.556292	0.085518	0.172003	14282.652344
6353.557334	0.085584	0.172003	14371.830078
6353.558217	0.085594	0.172003	14447.410156
6353.559082	0.085547	0.172003	14521.408203
6353.560056	0.085664	0.172003	14604.844727
6353.560982	0.085598	0.172003	14684.108398
6353.561888	0.085587	0.172003	14761.650391
6353.562764	0.085518	0.172003	14836.563477
6353.563799	0.085565	0.172003	14925.123047
6354.625470	1.092674	0.204588	465.479340
6354.626512	1.621454	0.204588	2155.034180
6354.627469	1.604092	0.204588	3690.149902
6354.628342	1.562472	0.204588	5054.187988
6354.629275	1.518724	0.204588	6471.157715
6354.630342	1.471234	0.204588	8040.964355
6354.631240	1.432632	0.204588	9327.467773
6354.632108	1.396520	0.204588	10539.646484
6354.633155	1.355621	0.204588	11958.982422
6354.634104	1.318854	0.204588	13210.574219
6354.634987	1.055951	0.204588	14142.978516
6354.635921	0.141229	0.204588	14274.886719
6354.636974	0.085529	0.204588	14364.948242
6354.637861	0.085580	0.204588	14440.857422
6354.638721	0.085682	0.204588	14514.543945
6354.639763	0.085657	0.204588	14603.797852
6354.640725	0.085562	0.204588	14686.108398
6354.641596	0.085580	0.204588	14760.648437
6354.642477	0.085616	0.204588	14836.076172
6354.643594	0.085573	0.204588	14931.661133
6354.644470	0.085536	0.204588	15006.590820
6355.618235	1.084775	0.179781	457.775177
6355.619291	1.621436	0.179781	2170.011230
6355.620323	1.600356	0.179781	3821.579102
6355.621207	1.558162	0.179781	5198.994141
6355.622164	1.513898	0.179781	6647.794434
6355.623214	1.466331	0.179781	8187.441406
6355.624143	1.426988	0.179781	9513.113281
6355.625015	1.390686	0.179781	10725.791016
6355.626061	1.350000	0.179781	12137.890625
6355.627079	1.310629	0.179781	13472.110352
6355.627978	0.795696	0.179781	14187.440430
6355.628957	0.097002	0.179781	14282.405273
6355.630008	0.085499	0.179781	14372.264648
6355.630920	0.085554	0.179781	14450.290039
6355.631782	0.085499	0.179781	14523.990234
6355.632871	0.085573	0.179781	14617.178711
6355.633852	0.085433	0.179781	14700.989258
6355.634741	0.085569	0.179781	14777.059570
6355.635743	0.085701	0.179781	14862.931641
6355.636783	0.085587	0.179781	14951.942383
6355.637679	0.085499	0.179781	15028.549805
6356.699103	1.123370	0.190924	504.393311
6356.699978	1.617718	0.190924	1919.896973
6356.700893	1.612581	0.190924	3395.408203
6356.701845	1.567811	0.190924	4887.964844
6356.702788	1.523665	0.190924	6324.780273
6356.703661	1.483443	0.190924	7619.826172
6356.704584	1.442959	0.190924	8951.677734
6356.705541	1.403536	0.190924	10294.862305
6356.706476	1.366732	0.190924	11572.756836
6356.707358	1.331697	0.190924	12747.313477
6356.708342	1.248626	0.190924	13975.960937
6356.709295	0.242651	0.190924	14207.208008
6356.710183	0.085558	0.190924	14283.183594
6356.711057	0.085481	0.190924	14357.893555
6356.712014	0.085573	0.190924	14439.786133
6356.712958	0.085573	0.190924	14520.566406
6356.713837	0.085569	0.190924	14595.781250
6356.714739	0.085554	0.190924	14672.951172
6356.715685	0.085587	0.190924	14753.916992
6356.716612	0.085649	0.190924	14833.314453
6356.717490	0.085638	0.190924	14908.504883
6357.693894	1.096055	0.175104	475.687714
6357.694767	1.615481	0.175104	1886.002563
6357.695644	1.613811	0.175104	3301.314941
6357.696621	1.571016	0.175104	4836.197266
6357.697560	1.525796	0.175104	6268.919922
6357.698490	1.483330	0.175104	7648.416992
6357.699352	1.445292	0.175104	8894.258789
6357.700268	1.406437	0.175104	10182.554687
6357.701228	1.368959	0.175104	11496.754883
6357.702127	1.333748	0.175104	12695.793945
6357.703089	1.271228	0.175104	13918.714844
6357.704028	0.284275	0.175104	14185.649414
6357.704943	0.085737	0.175104	14264.098633
6357.705819	0.085503	0.175104	14338.999023
6357.706765	0.085510	0.175104	14419.891602
6357.707711	0.085594	0.175104	14500.864258
6357.708635	0.085671	0.175104	14580.024414
6357.709498	0.085653	0.175104	14653.943359
6357.710417	0.085532	0.175104	14732.547852
6357.711355	0.085562	0.175104	14812.804687
6357.712276	0.085631	0.175104	14891.670898
6358.776396	1.222789	0.203947	684.762024
6358.777313	1.624841	0.203947	2174.741455
6358.778245	1.604429	0.203947	3670.069092
6358.779108	1.562014	0.203947	5018.087402
6358.780161	1.514857	0.203947	6613.231934
6358.781043	1.474805	0.203947	7914.009766
6358.781913	1.437327	0.203947	9164.484375
6358.782900	1.396827	0.203947	10543.153320
6358.783840	1.359192	0.203947	11820.793945
6358.784751	1.324017	0.203947	13026.973633
6358.785633	1.150085	0.203947	14041.348633
6358.786670	0.142599	0.203947	14189.223633
6358.787567	0.085474	0.203947	14265.893555
6358.788440	0.085540	0.203947	14340.569336
6358.789385	0.085609	0.203947	14421.469727
6358.790358	0.085620	0.203947	14504.778320
6358.791278	0.085598	0.203947	14583.528320
6358.792145	0.085521	0.203947	14657.674805
6358.793184	0.085576	0.203947	14746.588867
6358.794063	0.085503	0.203947	14821.746094
6358.794924	0.085529	0.203947	14895.385742
6359.768614	1.185527	0.177046	630.700623
6359.769672	1.625383	0.177046	2350.356201
6359.770584	1.599921	0.177046	3809.483887
6359.771451	1.557052	0.177046	5159.448242
6359.772567	1.507137	0.177046	6841.413574
6359.773533	1.464448	0.177046	8256.070312
6359.774404	1.427421	0.177046	9499.353516
6359.775438	1.384940	0.177046	10931.381836
6359.776485	1.344602	0.177046	12339.179687
6359.777380	1.309698	0.177046	13511.359375
6359.778291	0.735912	0.177046	14181.775391
6359.779356	0.088916	0.177046	14276.470703
6359.780305	0.085573	0.177046	14357.678711
6359.781166	0.085547	0.177046	14431.334961
6359.782204	0.085620	0.177046	14520.208984
6359.783227	0.085499	0.177046	14607.674805
6359.784108	0.085591	0.177046	14683.080078
6359.785058	0.085584	0.177046	14764.384766
6359.786111	0.085562	0.177046	14854.481445
6359.787041	0.085587	0.177046	14934.077148
6359.787895	0.085569	0.177046	15007.153320
6360.850870	1.079707	0.203343	453.476959
6360.851863	1.617184	0.203343	2059.340576
6360.852922	1.601942	0.203343	3755.797363
6360.853819	1.559110	0.203343	5154.319336
6360.854688	1.516952	0.203343	6472.550781
6360.855789	1.469344	0.203343	8090.298828
6360.856760	1.428014	0.203343	9476.900391
6360.857625	1.392297	0.203343	10681.237305
6360.858664	1.351743	0.203343	12085.698242
6360.859714	1.311647	0.203343	13462.927734
6360.860608	0.807389	0.203343	14184.733398
6360.861535	0.099760	0.203343	14277.210937
6360.862594	0.085638	0.203343	14367.902344
6360.863529	0.085529	0.203343	14447.871094
6360.864387	0.085642	0.203343	14521.351562
6360.865442	0.085682	0.203343	14611.746094
6360.866468	0.085591	0.203343	14699.562500
6360.867342	0.085591	0.203343	14774.369141
6360.868291	0.085624	0.203343	14855.625977
6360.869329	0.085730	0.203343	14944.613281
6360.870257	0.085576	0.203343	15024.028320
6361.844224	1.141611	0.180514	551.398254
6361.845150	1.621454	0.180514	2052.864502
6361.846021	1.609687	0.180514	3454.902344
6361.846936	1.567720	0.180514	4889.365723
6361.847893	1.523024	0.180514	6346.899414
6361.848826	1.480254	0.180514	7727.976562
6361.849708	1.442117	0.180514	8999.923828
6361.850664	1.401822	0.180514	10340.066406
6361.851626	1.363762	0.180514	11652.005859
6361.852559	1.327932	0.180514	12890.966797
6361.853428	1.233992	0.180514	13963.305664
6361.854419	0.222656	0.180514	14183.958008
6361.855350	0.085459	0.180514	14263.520508
6361.856213	0.085613	0.180514	14337.404297
6361.857154	0.085584	0.180514	14417.938477
6361.858082	0.085605	0.180514	14497.379883
6361.859002	0.085609	0.180514	14576.140625
6361.859866	0.085547	0.180514	14650.052734
6361.860827	0.085653	0.180514	14732.365234
6361.861779	0.085529	0.180514	14813.788086
6361.862670	0.085631	0.180514	14890.084961
6362.927076	1.147877	0.219178	532.615051
6362.928009	1.621340	0.219178	2045.325439
6362.928899	1.609493	0.219178	3477.774414
6362.929828	1.566339	0.219178	4932.903320
6362.930788	1.522046	0.219178	6394.067383
6362.931712	1.480009	0.219178	7761.595215
6362.932583	1.441937	0.219178	9017.522461
6362.933528	1.402786	0.219178	10343.155273
6362.934452	1.365414	0.219178	11604.797852
6362.935377	1.329796	0.219178	12834.859375
6362.936260	1.251526	0.219178	13939.957031
6362.937241	0.249379	0.219178	14184.597656
6362.938197	0.085569	0.219178	14266.401367
6362.939090	0.085627	0.219178	14342.866211
6362.940002	0.085616	0.219178	14420.948242
6362.940950	0.085536	0.219178	14502.036133
6362.941878	0.085562	0.219178	14581.437500
6362.942753	0.085591	0.219178	14656.329102
6362.943683	0.085653	0.219178	14735.986328
6362.944612	0.085510	0.219178	14815.425781
6362.945511	0.085558	0.219178	14892.342773
6363.919819	1.093553	0.187431	478.976410
6363.920696	1.615701	0.187431	1895.945923
6363.921560	1.613837	0.187431	3290.300781
6363.922596	1.567218	0.187431	4913.938477
6363.923487	1.524346	0.187431	6272.130371
6363.924411	1.482744	0.187431	7642.186035
6363.925277	1.443351	0.187431	8892.127930
6363.926309	1.401603	0.187431	10338.582031
6363.927211	1.366124	0.187431	11570.826172
6363.928094	1.331939	0.187431	12746.927734
6363.929091	1.224584	0.187431	13967.837891
6363.930030	0.223004	0.187431	14177.239258
6363.930954	0.085510	0.187431	14256.250977
6363.931815	0.085562	0.187431	14329.919922
6363.932848	0.085503	0.187431	14418.244141
6363.933735	0.085532	0.187431	14494.111328
6363.934612	0.085573	0.187431	14569.158203
6363.935574	0.085587	0.187431	14651.493164
6363.936532	0.085602	0.187431	14733.500000
6363.937437	0.085657	0.187431	14811.019531
6363.938316	0.085609	0.187431	14886.269531
6365.000639	1.085826	0.212141	458.218750
6365.001580	1.614163	0.212141	1977.145752
6365.002629	1.604147	0.212141	3659.895508
6365.003526	1.561663	0.212141	5060.707031
6365.004391	1.521138	0.212141	6376.491211
6365.005442	1.473787	0.212141	7925.440918
6365.006408	1.432753	0.212141	9309.480469
6365.007289	1.396362	0.212141	10539.675781
6365.008201	1.360034	0.212141	11780.027344
6365.009259	1.319974	0.212141	13176.560547
6365.010143	1.074514	0.212141	14126.430664
6365.011011	0.149755	0.212141	14256.417969
6365.012059	0.085598	0.212141	14346.125000
6365.013013	0.085584	0.212141	14427.771484
6365.013875	0.085521	0.212141	14501.491211
6365.014751	0.085616	0.212141	14576.491211
6365.015834	0.085591	0.212141	14669.186523
6365.016737	0.085554	0.212141	14746.442383
6365.017601	0.085635	0.212141	14820.430664
6365.018662	0.085660	0.212141	14911.316406
6365.019632	0.085547	0.212141	14994.296875
6365.995466	1.120360	0.197083	491.838104
6365.996355	1.617085	0.197083	1929.426636
6365.997275	1.610219	0.197083	3410.827637
6365.998236	1.566185	0.197083	4915.931641
6365.999166	1.523199	0.197083	6332.506836
6366.000033	1.483092	0.197083	7618.347656
6366.001004	1.442069	0.197083	9018.596680
6366.001962	1.402529	0.197083	10362.219727
6366.002858	1.366549	0.197083	11586.647461
6366.003773	1.331569	0.197083	12805.033203
6366.004705	1.253379	0.197083	13973.182617
6366.005641	0.245999	0.197083	14203.437500
6366.006525	0.085660	0.197083	14279.161133
6366.007440	0.085569	0.197083	14357.457031
6366.008400	0.085616	0.197083	14439.648437
6366.009317	0.085554	0.197083	14518.101562
6366.010187	0.085562	0.197083	14592.540039
6366.011245	0.085679	0.197083	14683.188477
6366.012290	0.085609	0.197083	14772.650391
6366.013201	0.085569	0.197083	14850.603516
6366.014062	0.085741	0.197083	14924.426758
6367.075775	1.090895	0.215383	464.721130
6367.076695	1.617598	0.215383	1952.911133
6367.077662	1.607801	0.215383	3507.655273
6367.078595	1.564863	0.215383	4967.672852
6367.079465	1.523445	0.215383	6293.069824
6367.080440	1.479884	0.215383	7735.957031
6367.081388	1.439517	0.215383	9100.619141
6367.082280	1.402189	0.215383	10351.371094
6367.083198	1.366710	0.215383	11606.010742
6367.084136	1.329185	0.215383	12852.786133
6367.085036	1.256418	0.215383	13983.562500
6367.085923	0.270117	0.215383	14223.156250
6367.086894	0.085613	0.215383	14306.286133
6367.087838	0.085664	0.215383	14387.153320
6367.088730	0.085558	0.215383	14463.470703
6367.089639	0.085631	0.215383	14541.309570
6367.090582	0.085624	0.215383	14622.052734
6367.091514	0.085573	0.215383	14701.806641
6367.092379	0.085554	0.215383	14775.810547
6367.093348	0.085551	0.215383	14858.708984
6367.094289	0.085562	0.215383	14939.222656
6368.070610	1.120877	0.191472	494.306549
6368.071483	1.616019	0.191472	1905.091309
6368.072537	1.605385	0.191472	3597.166504
6368.073435	1.563259	0.191472	5000.973145
6368.074317	1.522379	0.191472	6343.711426
6368.075306	1.478126	0.191472	7805.578125
6368.076251	1.436887	0.191472	9163.436523
6368.077173	1.398911	0.191472	10453.232422
6368.078044	1.363598	0.191472	11640.925781
6368.079086	1.324032	0.191472	13020.567383
6368.079978	1.176815	0.191472	14070.286133
6368.080849	0.198398	0.191472	14243.090820
6368.081814	0.085653	0.191472	14325.746094
6368.082765	0.085521	0.191472	14407.077148
6368.083671	0.085551	0.191472	14484.585937
6368.084549	0.085602	0.191472	14559.744141
6368.085570	0.085653	0.191472	14647.196289
6368.086463	0.085455	0.191472	14723.507812
6368.087327	0.085642	0.191472	14797.502930
6368.088206	0.085598	0.191472	14872.744141
6368.089239	0.085627	0.191472	14961.197266
6369.151030	1.200242	0.224322	658.932678
6369.152098	1.625376	0.224322	2394.834229
6369.153003	1.598848	0.224322	3841.791504
6369.153879	1.555587	0.224322	5204.485840
6369.154980	1.506365	0.224322	6862.993652
6369.155951	1.463383	0.224322	8283.938477
6369.156823	1.426293	0.224322	9527.666016
6369.157860	1.384116	0.224322	10962.994141
6369.158894	1.343730	0.224322	12352.411133
6369.159794	1.308940	0.224322	13530.457031
6369.160736	0.694336	0.224322	14184.521484
6369.161784	0.088392	0.224322	14277.156250
6369.162724	0.085525	0.224322	14357.549805
6369.163596	0.085602	0.224322	14432.194336
6369.164543	0.085697	0.224322	14513.349609
6369.165579	0.085576	0.224322	14602.006836
6369.166462	0.085584	0.224322	14677.577148
6369.167319	0.085605	0.224322	14750.941406
6369.168349	0.085664	0.224322	14839.175781
6369.169304	0.085569	0.224322	14920.893555
6369.170181	0.085576	0.224322	14995.944336
6370.145221	1.093718	0.189026	472.486298
6370.146085	1.614309	0.189026	1867.249390
6370.147041	1.610336	0.189026	3406.730469
6370.147976	1.567152	0.189026	4872.017578
6370.148867	1.525778	0.189026	6231.485352
6370.149781	1.484619	0.189026	7588.427246
6370.150738	1.442908	0.189026	8969.290039
6370.151662	1.404181	0.189026	10266.752930
6370.152554	1.369076	0.189026	11487.968750
6370.153486	1.332323	0.189026	12729.693359
6370.154447	1.267720	0.189026	13947.971680
6370.155378	0.280104	0.189026	14208.748047
6370.156238	0.085898	0.189026	14282.621094
6370.157182	0.085657	0.189026	14363.481445
6370.158140	0.085627	0.189026	14445.512695
6370.159025	0.085682	0.189026	14521.341797
6370.159923	0.085653	0.189026	14598.257812
6370.160848	0.085631	0.189026	14677.466797
6370.161795	0.085620	0.189026	14758.548828
6370.162684	0.085605	0.189026	14834.652344
6370.163602	0.085598	0.189026	14913.231445
6371.225525	1.090093	0.228883	457.838959
6371.226480	1.618422	0.228883	2003.431641
6371.227413	1.607963	0.228883	3503.660645
6371.228308	1.566599	0.228883	4905.766602
6371.229227	1.523778	0.228883	6306.118652
6371.230192	1.480291	0.228883	7734.599121
6371.231123	1.440037	0.228883	9075.273437
6371.231994	1.403536	0.228883	10297.753906
6371.232940	1.365897	0.228883	11589.892578
6371.233882	1.328672	0.228883	12841.501953
6371.234818	1.253690	0.228883	14014.956055
6371.235688	0.268151	0.228883	14248.247070
6371.236642	0.085682	0.228883	14329.988281
6371.237571	0.085540	0.228883	14409.454102
6371.238462	0.085602	0.228883	14485.725586
6371.239375	0.085697	0.228883	14563.966797
6371.240327	0.085642	0.228883	14645.498047
6371.241257	0.085554	0.228883	14725.063477
6371.242131	0.085591	0.228883	14799.870117
6371.243104	0.085635	0.228883	14883.192383
6371.244049	0.085558	0.228883	14964.044922
6372.222415	1.098490	0.208709	484.434082
6372.223286	1.615701	0.208709	1891.709351
6372.224153	1.613086	0.208709	3290.254883
6372.225177	1.567093	0.208709	4894.958496
6372.226081	1.524342	0.208709	6272.963867
6372.226959	1.484224	0.208709	7576.112305
6372.227840	1.444849	0.208709	8849.023437
6372.228888	1.402412	0.208709	10318.750977
6372.229778	1.366978	0.208709	11535.361328
6372.230657	1.332799	0.208709	12706.891602
6372.231665	1.253430	0.208709	13970.349609
6372.232578	0.258633	0.208709	14206.481445
6372.233500	0.085671	0.208709	14285.470703
6372.234360	0.085682	0.208709	14359.157227
6372.235380	0.085616	0.208709	14446.486328
6372.236273	0.085573	0.208709	14522.902344
6372.237180	0.085565	0.208709	14600.509766
6372.238054	0.085598	0.208709	14675.322266
6372.239046	0.085646	0.208709	14760.283203
6372.239961	0.085635	0.208709	14838.638672
6372.240852	0.085609	0.208709	14914.916016
6373.299653	1.103994	0.226159	476.925476
6373.300518	1.614214	0.226159	1873.220459
6373.301618	1.604520	0.226159	3638.192871
6373.302526	1.561326	0.226159	5055.876465
6373.303410	1.520431	0.226159	6399.937500
6373.304402	1.476009	0.226159	7864.138672
6373.305399	1.432884	0.226159	9292.724609
6373.306297	1.395736	0.226159	10546.095703
6373.307164	1.360345	0.226159	11725.515625
6373.308262	1.319432	0.226159	13174.251953
6373.309167	1.045620	0.226159	14120.538086
6373.310039	0.141259	0.226159	14243.715820
6373.311045	0.085605	0.226159	14329.834961
6373.312035	0.085631	0.226159	14414.609375
6373.312901	0.085631	0.226159	14488.765625
6373.313773	0.085591	0.226159	14563.400391
6373.314751	0.085741	0.226159	14647.254883
6373.315690	0.085554	0.226159	14727.589844
6373.316606	0.085573	0.226159	14805.974609
6373.317480	0.085529	0.226159	14880.726562
6373.318513	0.085540	0.226159	14969.088867
6374.297144	1.191057	0.213277	657.463501
6374.298198	1.625219	0.213277	2370.443848
6374.299109	1.599067	0.213277	3827.194336
6374.299974	1.556883	0.213277	5173.898437
6374.301073	1.507361	0.213277	6830.487793
6374.302049	1.463957	0.213277	8259.310547
6374.302914	1.426985	0.213277	9493.652344
6374.304006	1.382845	0.213277	11003.719727
6374.305043	1.342397	0.213277	12395.786133
6374.305926	1.308047	0.213277	13550.791992
6374.306872	0.676381	0.213277	14190.648437
6374.307920	0.088195	0.213277	14283.076172
6374.308857	0.085565	0.213277	14363.250977
6374.309715	0.085609	0.213277	14436.703125
6374.310721	0.085657	0.213277	14522.874023
6374.311752	0.085627	0.213277	14611.156250
6374.312640	0.085704	0.213277	14687.261719
6374.313573	0.085558	0.213277	14767.086914
6374.314637	0.085554	0.213277	14858.116211
6374.315572	0.085653	0.213277	14938.202148
6374.316437	0.085693	0.213277	15012.327148
6375.375860	1.142197	0.234494	550.539062
6375.376812	1.621505	0.234494	2094.211914
6375.377737	1.606304	0.234494	3580.042969
6375.378615	1.564728	0.234494	4953.874023
6375.379582	1.520442	0.234494	6424.141602
6375.380518	1.476665	0.234494	7806.300293
6375.381449	1.437484	0.234494	9144.597656
6375.382313	1.400830	0.234494	10354.915039
6375.383291	1.363055	0.234494	11687.983398
6375.384239	1.326152	0.234494	12945.175781
6375.385127	1.228583	0.234494	14036.157227
6375.386048	0.230859	0.234494	14248.778320
6375.386999	0.085514	0.234494	14330.102539
6375.387914	0.085514	0.234494	14408.347656
6375.388794	0.085584	0.234494	14483.661133
6375.389756	0.085532	0.234494	14565.943359
6375.390713	0.085554	0.234494	14647.818359
6375.391632	0.085649	0.234494	14726.530273
6375.392493	0.085642	0.234494	14800.268555
6375.393459	0.085558	0.234494	14882.916992
6375.394408	0.085679	0.234494	14964.226562
6376.373194	1.099651	0.222268	478.348114
6376.374058	1.614415	0.222268	1873.203003
6376.375027	1.609629	0.222268	3432.933350
6376.375978	1.565896	0.222268	4922.100586
6376.376903	1.523152	0.222268	6331.016113
6376.377765	1.482513	0.222268	7608.942383
6376.378721	1.441879	0.222268	8987.378906
6376.379667	1.402709	0.222268	10314.341797
6376.380562	1.367069	0.222268	11537.868164
6376.381484	1.332001	0.222268	12765.972656
6376.382407	1.266910	0.222268	13935.331055
6376.383372	0.252557	0.222268	14179.048828
6376.384264	0.085627	0.222268	14255.428711
6376.385186	0.085642	0.222268	14334.390625
6376.386133	0.085551	0.222268	14415.407227
6376.387054	0.085525	0.222268	14494.175781
6376.387910	0.085602	0.222268	14567.451172
6376.388826	0.085620	0.222268	14645.878906
6376.389784	0.085609	0.222268	14727.892578
6376.390707	0.085474	0.222268	14806.785156
6376.391568	0.085554	0.222268	14880.447266
6377.451050	1.173560	0.237769	627.854370
6377.451985	1.623860	0.237769	2146.163330
6377.452901	1.604747	0.237769	3616.111816
6377.453777	1.562754	0.237769	4985.083984
6377.454810	1.515721	0.237769	6550.824219
6377.455705	1.474750	0.237769	7870.725098
6377.456623	1.435876	0.237769	9188.859375
6377.457496	1.399175	0.237769	10410.338867
6377.458494	1.360474	0.237769	11768.091797
6377.459424	1.324541	0.237769	12999.915039
6377.460293	1.211360	0.237769	14052.586914
6377.461347	0.166267	0.237769	14227.832031
6377.462220	0.085488	0.237769	14302.462891
6377.463138	0.085503	0.237769	14380.954102
6377.464016	0.085411	0.237769	14455.945312
6377.464996	0.085448	0.237769	14539.684570
6377.465922	0.085466	0.237769	14618.826172
6377.466797	0.085488	0.237769	14693.628906
6377.467762	0.085558	0.237769	14776.192383
6377.468695	0.085532	0.237769	14855.994141
6377.469618	0.085613	0.237769	14935.014648
6378.447885	1.159486	0.218079	576.264648
6378.448773	1.620439	0.218079	2015.214844
6378.449642	1.610083	0.218079	3414.376953
6378.450695	1.561230	0.218079	5058.352539
6378.451670	1.516113	0.218079	6536.562988
6378.452552	1.475801	0.218079	7838.219238
6378.453422	1.436759	0.218079	9088.199219
6378.454538	1.393363	0.218079	10643.192383
6378.455427	1.357848	0.218079	11850.319336
6378.456290	1.323940	0.218079	12992.879883
6378.457341	1.005630	0.218079	14049.796875
6378.458308	0.117162	0.218079	14163.092773
6378.459176	0.085532	0.218079	14237.334961
6378.460031	0.085594	0.218079	14310.518555
6378.461147	0.085591	0.218079	14406.038086
6378.462024	0.085474	0.218079	14480.998047
6378.462900	0.085532	0.218079	14555.923828
6378.463889	0.085646	0.218079	14640.627930
6378.464896	0.085562	0.218079	14726.788086
6378.465792	0.085558	0.218079	14803.448242
6378.466652	0.085587	0.218079	14877.052734
6379.525563	1.083695	0.244549	455.151917
6379.526575	1.615100	0.244549	2089.633301
6379.527624	1.601008	0.244549	3769.090820
6379.528524	1.558026	0.244549	5171.314453
6379.529389	1.516150	0.244549	6482.784180
6379.530479	1.468180	0.244549	8083.100098
6379.531476	1.425949	0.244549	9504.770508
6379.532373	1.389518	0.244549	10751.167969
6379.533369	1.350743	0.244549	12096.508789
6379.534429	1.310446	0.244549	13485.581055
6379.535330	0.764396	0.244549	14174.301758
6379.536218	0.096610	0.244549	14260.091797
6379.537316	0.085605	0.244549	14354.086914
6379.538272	0.085576	0.244549	14435.897461
6379.539135	0.085613	0.244549	14509.781250
6379.540157	0.085657	0.244549	14597.322266
6379.541191	0.085565	0.244549	14685.796875
6379.542089	0.085584	0.244549	14762.650391
6379.543011	0.085635	0.244549	14841.605469
6379.544067	0.085642	0.244549	14932.043945
6379.545006	0.085701	0.244549	15012.516602
6380.523965	1.093011	0.228323	465.622894
6380.524831	1.614075	0.228323	1863.411621
6380.525820	1.608915	0.228323	3454.628418
6380.526775	1.565087	0.228323	4949.286133
6380.527666	1.523405	0.228323	6306.639648
6380.528586	1.481971	0.228323	7670.053223
6380.529547	1.440853	0.228323	9054.712891
6380.530480	1.401885	0.228323	10362.671875
6380.531349	1.366945	0.228323	11550.546875
6380.532286	1.329316	0.228323	12796.116211
6380.533244	1.230952	0.228323	13975.368164
6380.534166	0.237433	0.228323	14194.281250
6380.535042	0.085664	0.228323	14269.323242
6380.536014	0.085638	0.228323	14352.563477
6380.536962	0.085514	0.228323	14433.630859
6380.537846	0.085730	0.228323	14509.416016
6380.538740	0.085554	0.228323	14585.901367
6380.539677	0.085671	0.228323	14666.175781
6380.540621	0.085591	0.228323	14746.973633
6380.541492	0.085584	0.228323	14821.516602
6380.542403	0.085591	0.228323	14899.490234
6381.600715	1.108638	0.246708	476.714203
6381.601586	1.615111	0.246708	1883.475952
6381.602570	1.608307	0.246708	3466.049805
6381.603499	1.565369	0.246708	4920.277344
6381.604382	1.523650	0.246708	6265.660156
6381.605358	1.480133	0.246708	7710.270020
6381.606314	1.439224	0.246708	9086.167969
6381.607215	1.401500	0.246708	10348.919922
6381.608135	1.366033	0.246708	11605.669922
6381.609067	1.328522	0.246708	12843.852539
6381.610017	1.231549	0.246708	14013.824219
6381.610899	0.242542	0.246708	14227.746094
6381.611817	0.085653	0.246708	14306.375977
6381.612762	0.085569	0.246708	14387.238281
6381.613685	0.085668	0.246708	14466.309570
6381.614552	0.085638	0.246708	14540.557617
6381.615513	0.085620	0.246708	14622.838867
6381.616434	0.085532	0.246708	14701.614258
6381.617340	0.085598	0.246708	14779.166016
6381.618201	0.085704	0.246708	14852.957031
6381.619177	0.085624	0.246708	14936.525391
6382.599113	1.111366	0.231541	486.778320
6382.599993	1.615712	0.231541	1908.604614
6382.600986	1.608310	0.231541	3505.656738
6382.601908	1.564962	0.231541	4948.551758
6382.602828	1.522416	0.231541	6349.174316
6382.603697	1.482253	0.231541	7637.252441
6382.604676	1.441212	0.231541	9048.199219
6382.605587	1.401848	0.231541	10325.283203
6382.606486	1.366597	0.231541	11553.853516
6382.607556	1.325182	0.231541	12971.797852
6382.608467	1.180016	0.231541	14046.791992
6382.609385	0.189686	0.231541	14220.923828
6382.610256	0.085576	0.231541	14295.460937
6382.611210	0.085573	0.231541	14377.096680
6382.612151	0.085638	0.231541	14457.682617
6382.613041	0.085638	0.231541	14533.900391
6382.614048	0.085620	0.231541	14620.120117
6382.614948	0.085580	0.231541	14697.141602
6382.615863	0.085565	0.231541	14775.433594
6382.616730	0.085627	0.231541	14849.672852
6382.617671	0.085569	0.231541	14930.193359
6383.675833	1.083629	0.252928	457.291504
6383.676766	1.613284	0.252928	1962.485229
6383.677762	1.605879	0.252928	3561.940430
6383.678680	1.563054	0.252928	4996.824219
6383.679572	1.521614	0.252928	6354.103516
6383.680571	1.477335	0.252928	7829.961426
6383.681481	1.437125	0.252928	9137.745117
6383.682403	1.399431	0.252928	10428.020508
6383.683272	1.363645	0.252928	11613.028320
6383.684313	1.324387	0.252928	12991.714844
6383.685205	1.191493	0.252928	14054.526367
6383.686077	0.208304	0.252928	14236.167969
6383.687056	0.085507	0.252928	14319.878906
6383.687991	0.085499	0.252928	14399.820312
6383.688902	0.085616	0.252928	14477.817383
6383.689777	0.085580	0.252928	14552.700195
6383.690814	0.085613	0.252928	14641.480469
6383.691706	0.085613	0.252928	14717.846680
6383.692579	0.085671	0.252928	14792.637695
6383.693518	0.085598	0.252928	14873.014648
6383.694514	0.085609	0.252928	14958.281250
6384.674754	1.098886	0.231590	472.520782
6384.675623	1.613855	0.231590	1874.960693
6384.676730	1.603125	0.231590	3649.620117
6384.677704	1.558132	0.231590	5167.241211
6384.678574	1.517472	0.231590	6487.441895
6384.679627	1.469835	0.231590	8035.178223
6384.680676	1.425868	0.231590	9530.914062
6384.681574	1.388602	0.231590	10777.878906
6384.682509	1.352044	0.231590	12042.039062
6384.683567	1.311306	0.231590	13429.401367
6384.684519	0.754065	0.231590	14147.271484
6384.685394	0.095728	0.231590	14231.033203
6384.686331	0.085649	0.231590	14311.287109
6384.687367	0.085587	0.231590	14399.955078
6384.688247	0.085540	0.231590	14475.229492
6384.689107	0.085660	0.231590	14548.897461
6384.690154	0.085697	0.231590	14638.622070
6384.691081	0.085562	0.231590	14717.937500
6384.691953	0.085551	0.231590	14792.537109
6384.692862	0.085576	0.231590	14870.326172
6384.693935	0.085565	0.231590	14962.137695
6385.751490	1.089316	0.256436	466.227417
6385.752421	1.613690	0.256436	1968.572998
6385.753477	1.602697	0.256436	3661.020508
6385.754420	1.558868	0.256436	5131.033203
6385.755290	1.517791	0.256436	6451.510742
6385.756335	1.470894	0.256436	7988.594727
6385.757366	1.427278	0.256436	9460.118164
6385.758257	1.391067	0.256436	10699.558594
6385.759223	1.353245	0.256436	12006.792969
6385.760286	1.312163	0.256436	13401.622070
6385.761218	0.806796	0.256436	14153.555664
6385.762081	0.099749	0.256436	14239.638672
6385.763168	0.085697	0.256436	14332.791016
6385.764153	0.085536	0.256436	14417.043945
6385.765046	0.085598	0.256436	14493.483398
6385.766048	0.085682	0.256436	14579.336914
6385.767085	0.085638	0.256436	14668.143555
6385.767983	0.085642	0.256436	14745.049805
6385.768842	0.085613	0.256436	14818.590820
6385.769929	0.085719	0.256436	14911.767578
6385.770895	0.085584	0.256436	14994.441406
6386.749893	1.092290	0.228081	470.777008
6386.750759	1.614360	0.228081	1868.812988
6386.751718	1.609757	0.228081	3412.570068
6386.752657	1.566247	0.228081	4883.276367
6386.753585	1.523386	0.228081	6296.978516
6386.754452	1.482634	0.228081	7582.422363
6386.755430	1.441670	0.228081	8992.375977
6386.756371	1.402584	0.228081	10312.208008
6386.757254	1.367080	0.228081	11519.339844
6386.758173	1.331569	0.228081	12743.051758
6386.759121	1.262772	0.228081	13940.160156
6386.760052	0.269073	0.228081	14190.667969
6386.760926	0.085730	0.228081	14265.595703
6386.761889	0.085576	0.228081	14348.005859
6386.762837	0.085558	0.228081	14429.114258
6386.763761	0.085642	0.228081	14508.247070
6386.764623	0.085536	0.228081	14581.979492
6386.765605	0.085598	0.228081	14666.037109
6386.766538	0.085565	0.228081	14745.869141
6386.767396	0.085580	0.228081	14819.296875
6386.768338	0.085638	0.228081	14899.968750
6387.826135	1.119880	0.261709	496.106995
6387.827009	1.616180	0.261709	1908.648682
6387.827933	1.610995	0.261709	3397.208008
6387.828889	1.567181	0.261709	4895.433594
6387.829805	1.523460	0.261709	6290.922363
6387.830682	1.483392	0.261709	7591.857422
6387.831599	1.442944	0.261709	8915.037109
6387.832562	1.403840	0.261709	10266.935547
6387.833455	1.368391	0.261709	11488.908203
6387.834368	1.332828	0.261709	12705.780273
6387.835333	1.275923	0.261709	13937.045898
6387.836261	0.285436	0.261709	14201.930664
6387.837125	0.085935	0.261709	14276.178711
6387.838086	0.085507	0.261709	14358.350586
6387.839001	0.085605	0.261709	14436.679687
6387.839922	0.085616	0.261709	14515.532227
6387.840778	0.085602	0.261709	14588.807617
6387.841720	0.085594	0.261709	14669.437500
6387.842667	0.085620	0.261709	14750.519531
6387.843564	0.085631	0.261709	14827.331055
6387.844475	0.085565	0.261709	14905.281250
6388.826039	1.079418	0.244754	455.514282
6388.827014	1.615972	0.244754	2031.086670
6388.827917	1.608076	0.244754	3483.179443
6388.828841	1.565387	0.244754	4929.596680
6388.829708	1.524313	0.244754	6251.175781
6388.830701	1.480675	0.244754	7721.486328
6388.831635	1.439952	0.244754	9066.402344
6388.832507	1.402921	0.244754	10289.750000
6388.833380	1.367325	0.244754	11483.424805
6388.834343	1.330283	0.244754	12764.487305
6388.835287	1.260271	0.244754	13954.183594
6388.836186	0.280034	0.244754	14205.934570
6388.837099	0.085979	0.244754	14284.433594
6388.838059	0.085554	0.244754	14366.565430
6388.838984	0.085499	0.244754	14445.652344
6388.839850	0.085598	0.244754	14519.780273
6388.840817	0.085587	0.244754	14602.542969
6388.841731	0.085598	0.244754	14680.779297
6388.842655	0.085525	0.244754	14759.804687
6388.843516	0.085569	0.244754	14833.479492
6388.844471	0.085551	0.244754	14915.180664
6389.901782	1.129014	0.271397	500.153046
6389.902664	1.616993	0.271397	1926.341309
6389.903531	1.611204	0.271397	3323.254883
6389.904503	1.567280	0.271397	4846.651367
6389.905452	1.523401	0.271397	6292.358887
6389.906348	1.482638	0.271397	7620.802734
6389.907270	1.443018	0.271397	8951.264648
6389.908228	1.403767	0.271397	10296.073242
6389.909118	1.367798	0.271397	11513.413086
6389.910023	1.332107	0.271397	12718.969727
6389.910970	1.269423	0.271397	13921.113281
6389.911919	0.276819	0.271397	14183.814453
6389.912810	0.085712	0.271397	14260.183594
6389.913716	0.085547	0.271397	14337.689453
6389.914676	0.085536	0.271397	14419.803711
6389.915597	0.085565	0.271397	14498.609375
6389.916460	0.085569	0.271397	14572.455078
6389.917431	0.085602	0.271397	14655.574219
6389.918359	0.085602	0.271397	14735.012695
6389.919272	0.085624	0.271397	14813.187500
6389.920129	0.085605	0.271397	14886.551758
6390.901220	1.140894	0.247719	527.092834
6390.902108	1.617645	0.247719	1963.561768
6390.903112	1.606538	0.247719	3576.525879
6390.904025	1.562820	0.247719	5003.380371
6390.904945	1.520566	0.247719	6402.301270
6390.905810	1.479683	0.247719	7682.226562
6390.906858	1.436191	0.247719	9187.355469
6390.907743	1.398918	0.247719	10425.398437
6390.908621	1.364579	0.247719	11623.499023
6390.909597	1.327116	0.247719	12918.763672
6390.910553	1.173962	0.247719	14041.071289
6390.911484	0.180381	0.247719	14209.005859
6390.912351	0.085584	0.247719	14283.207031
6390.913376	0.085649	0.247719	14370.998047
6390.914264	0.085499	0.247719	14446.921875
6390.915133	0.085624	0.247719	14521.329102
6390.916049	0.085657	0.247719	14599.791016
6390.917042	0.085605	0.247719	14684.796875
6390.917948	0.085569	0.247719	14762.322266
6390.918822	0.085653	0.247719	14837.182617
6390.919811	0.085690	0.247719	14921.929687
6391.975917	1.120734	0.273109	533.469177
6391.976913	1.623757	0.273109	2150.731445
6391.977846	1.603480	0.273109	3646.778320
6391.978715	1.560762	0.273109	5003.080078
6391.979819	1.512125	0.273109	6672.466309
6391.980721	1.470531	0.273109	7998.885254
6391.981604	1.433331	0.273109	9264.516602
6391.982624	1.391920	0.273109	10684.275391
6391.983607	1.352545	0.273109	12013.827148
6391.984522	1.317382	0.273109	13219.231445
6391.985398	1.043624	0.273109	14133.446289
6391.986413	0.126149	0.273109	14261.487305
6391.987294	0.085474	0.273109	14336.790039
6391.988203	0.085616	0.273109	14414.615234
6391.989078	0.085635	0.273109	14489.545898
6391.990108	0.085569	0.273109	14577.681641
6391.991000	0.085536	0.273109	14653.979492
6391.991876	0.085591	0.273109	14728.957031
6391.992848	0.085682	0.273109	14812.240234
6391.993802	0.085573	0.273109	14893.875977
6391.994728	0.085627	0.273109	14973.166992
6392.976833	1.102961	0.251489	475.376373
6392.977715	1.615375	0.251489	1900.136841
6392.978713	1.607410	0.251489	3504.331543
6392.979773	1.558953	0.251489	5156.821289
6392.980667	1.516641	0.251489	6512.698242
6392.981548	1.475570	0.251489	7812.675781
6392.982636	1.430347	0.251489	9368.892578
6392.983598	1.390891	0.251489	10706.929687
6392.984468	1.356606	0.251489	11887.177734
6392.985506	1.316700	0.251489	13253.913086
6392.986550	0.815973	0.251489	14105.789062
6392.987427	0.099979	0.251489	14193.470703
6392.988373	0.085594	0.251489	14274.443359
6392.989427	0.085635	0.251489	14364.702148
6392.990354	0.085573	0.251489	14444.028320
6392.991213	0.085638	0.251489	14517.591797
6392.992244	0.085660	0.251489	14605.907227
6392.993257	0.085627	0.251489	14692.647461
6392.994147	0.085638	0.251489	14768.865234
6392.995091	0.085675	0.251489	14849.742187
6392.996159	0.085657	0.251489	14941.223633
6394.050998	1.080945	0.273967	453.996857
6394.052026	1.619524	0.273967	2118.867432
6394.053072	1.599895	0.273967	3792.357422
6394.053967	1.557158	0.273967	5186.014160
6394.054896	1.514150	0.273967	6592.660156
6394.055968	1.466188	0.273967	8164.413574
6394.056902	1.426516	0.273967	9496.779297
6394.057766	1.390547	0.273967	10698.211914
6394.058831	1.349520	0.273967	12135.451172
6394.059844	1.310610	0.273967	13463.099609
6394.060735	0.810575	0.273967	14185.322266
6394.061707	0.099701	0.273967	14282.231445
6394.062760	0.085660	0.273967	14372.431641
6394.063671	0.085682	0.273967	14450.488281
6394.064531	0.085668	0.273967	14524.162109
6394.065583	0.085730	0.273967	14614.349609
6394.066581	0.085598	0.273967	14699.776367
6394.067466	0.085668	0.273967	14775.592773
6394.068430	0.085726	0.273967	14858.233398
6394.069482	0.085554	0.273967	14948.236328
6394.070397	0.085569	0.273967	15026.532227
6395.051477	1.113149	0.246700	490.898895
6395.052359	1.616005	0.246700	1916.214966
6395.053220	1.610837	0.246700	3303.145996
6395.054208	1.566705	0.246700	4851.050781
6395.055164	1.522855	0.246700	6306.900391
6395.056054	1.481847	0.246700	7625.744141
6395.056970	1.442750	0.246700	8947.303711
6395.057943	1.403079	0.246700	10312.499023
6395.058859	1.365612	0.246700	11563.399414
6395.059750	1.331005	0.246700	12749.324219
6395.060679	1.269232	0.246700	13928.441406
6395.061638	0.269172	0.246700	14186.578125
6395.062568	0.085620	0.246700	14266.205078
6395.063425	0.085675	0.246700	14339.628906
6395.064375	0.085558	0.246700	14420.909180
6395.065326	0.085565	0.246700	14502.281250
6395.066212	0.085576	0.246700	14578.101562
6395.067127	0.085591	0.246700	14656.416992
6395.068046	0.085437	0.246700	14734.933594
6395.068988	0.085576	0.246700	14815.545898
6395.069875	0.085554	0.246700	14891.432617
6396.126191	1.101541	0.281641	519.927124
6396.127120	1.620454	0.281641	2025.329102
6396.128051	1.606432	0.281641	3520.916992
6396.128931	1.565530	0.281641	4898.583008
6396.129857	1.522017	0.281641	6307.970703
6396.130815	1.478958	0.281641	7724.812012
6396.131725	1.439304	0.281641	9034.579102
6396.132610	1.402288	0.281641	10275.603516
6396.133558	1.365227	0.281641	11569.838867
6396.134516	1.328210	0.281641	12842.264648
6396.135410	1.262992	0.281641	13971.379883
6396.136342	0.273135	0.281641	14225.941406
6396.137266	0.085400	0.281641	14304.851562
6396.138211	0.085536	0.281641	14385.682617
6396.139096	0.085558	0.281641	14461.401367
6396.140023	0.085518	0.281641	14540.675781
6396.140971	0.085594	0.281641	14621.819336
6396.141886	0.085554	0.281641	14700.101562
6396.142746	0.085477	0.281641	14773.612305
6396.143687	0.085547	0.281641	14854.112305
6396.144612	0.085510	0.281641	14933.208984
6397.128640	1.113340	0.272340	474.282806
6397.129689	1.622823	0.272340	2176.624512
6397.130565	1.605472	0.272340	3583.018555
6397.131445	1.564698	0.272340	4959.953125
6397.132430	1.519017	0.272340	6456.185059
6397.133369	1.475790	0.272340	7841.951660
6397.134295	1.436686	0.272340	9172.322266
6397.135163	1.399849	0.272340	10387.390625
6397.136210	1.359448	0.272340	11810.732422
6397.137100	1.324501	0.272340	12989.538086
6397.137978	1.220490	0.272340	14061.127930
6397.138973	0.211300	0.272340	14271.371094
6397.139922	0.085525	0.272340	14352.534180
6397.140838	0.085649	0.272340	14430.989258
6397.141704	0.085624	0.272340	14505.139648
6397.142731	0.085624	0.272340	14593.075195
6397.143611	0.085587	0.272340	14668.391602
6397.144489	0.085605	0.272340	14743.552734
6397.145387	0.085642	0.272340	14820.458984
6397.146398	0.085547	0.272340	14906.947266
6397.147323	0.085580	0.272340	14986.108398
6398.201275	1.097494	0.291986	465.337402
6398.202357	1.622000	0.291986	2220.340820
6398.203275	1.602404	0.291986	3691.347168
6398.204150	1.561556	0.291986	5057.708984
6398.205128	1.516754	0.291986	6541.094727
6398.206142	1.470491	0.291986	8032.172363
6398.207036	1.432236	0.291986	9312.591797
6398.207902	1.395425	0.291986	10521.029297
6398.208966	1.354362	0.291986	11962.070312
6398.209896	1.318392	0.291986	13188.174805
6398.210776	1.075019	0.291986	14134.192383
6398.211757	0.142467	0.291986	14273.952148
6398.212774	0.085496	0.291986	14360.901367
6398.213662	0.085562	0.291986	14436.879883
6398.214521	0.085554	0.291986	14510.371094
6398.215587	0.085642	0.291986	14601.666016
6398.216518	0.085525	0.291986	14681.290039
6398.217391	0.085573	0.291986	14755.995117
6398.218331	0.085638	0.291986	14836.495117
6398.219356	0.085576	0.291986	14924.210937
6398.220235	0.085529	0.291986	14999.390625
6399.203280	1.117105	0.264577	490.408875
6399.204147	1.614287	0.264577	1889.995850
6399.205248	1.603096	0.264577	3655.004395
6399.206215	1.557601	0.264577	5161.204590
6399.207086	1.517164	0.264577	6482.654785
6399.208103	1.471871	0.264577	7979.547852
6399.209155	1.427688	0.264577	9481.475586
6399.210038	1.390561	0.264577	10709.341797
6399.210939	1.354200	0.264577	11929.476562
6399.212034	1.313101	0.264577	13367.321289
6399.212988	0.819316	0.264577	14148.949219
6399.213845	0.101191	0.264577	14235.669922
6399.214863	0.085660	0.264577	14322.872070
6399.215901	0.085569	0.264577	14411.692383
6399.216794	0.085609	0.264577	14488.141602
6399.217718	0.085712	0.264577	14567.338867
6399.218792	0.085649	0.264577	14659.326172
6399.219726	0.085624	0.264577	14739.298828
6399.220591	0.085602	0.264577	14813.344727
6399.221651	0.085679	0.264577	14904.164062
6399.222663	0.085616	0.264577	14990.807617
6400.275914	1.114724	0.291330	490.478638
6400.276780	1.614646	0.291330	1888.762085
6400.277758	1.608223	0.291330	3461.603760
6400.278696	1.564874	0.291330	4929.455566
6400.279583	1.523595	0.291330	6280.884277
6400.280498	1.481858	0.291330	7636.784180
6400.281458	1.441175	0.291330	9020.312500
6400.282379	1.402833	0.291330	10312.322266
6400.283247	1.367739	0.291330	11499.519531
6400.284183	1.331012	0.291330	12745.346680
6400.285122	1.260092	0.291330	13928.572266
6400.286055	0.271787	0.291330	14182.149414
6400.286926	0.085887	0.291330	14256.957031
6400.288020	0.085668	0.291330	14350.677734
6400.289068	0.085631	0.291330	14440.418945
6400.289959	0.085620	0.291330	14516.706055
6400.290873	0.085664	0.291330	14595.002930
6400.291941	0.085638	0.291330	14686.464844
6400.292892	0.085642	0.291330	14767.910156
6400.293762	0.085551	0.291330	14842.338867
6400.294802	0.085624	0.291330	14931.387695
6401.279427	1.112018	0.280598	475.943634
6401.280410	1.619692	0.280598	2068.101318
6401.281344	1.606157	0.280598	3568.252197
6401.282223	1.564918	0.280598	4943.815430
6401.283153	1.522097	0.280598	6359.365723
6401.284114	1.478529	0.280598	7780.232422
6401.285024	1.438652	0.280598	9089.406250
6401.285904	1.402192	0.280598	10323.335937
6401.286858	1.365095	0.280598	11625.636719
6401.287788	1.328353	0.280598	12861.004883
6401.288672	1.272902	0.280598	13986.250000
6401.289635	0.225018	0.280598	14202.942383
6401.290597	0.085605	0.280598	14285.294922
6401.291519	0.085529	0.280598	14364.152344
6401.292382	0.085598	0.280598	14438.023437
6401.293351	0.085551	0.280598	14520.921875
6401.294297	0.085602	0.280598	14601.901367
6401.295180	0.085584	0.280598	14677.471680
6401.296062	0.085573	0.280598	14752.946289
6401.297010	0.085620	0.280598	14834.114258
6401.297954	0.085627	0.280598	14914.946289
6402.351560	1.100526	0.297167	473.226227
6402.352473	1.614210	0.297167	1947.000000
6402.353403	1.608743	0.297167	3443.130859
6402.354314	1.565834	0.297167	4869.605469
6402.355206	1.524562	0.297167	6229.514648
6402.356122	1.482568	0.297167	7587.547363
6402.357085	1.441564	0.297167	8975.773437
6402.357975	1.404536	0.297167	10225.810547
6402.358905	1.368234	0.297167	11498.267578
6402.359855	1.331195	0.297167	12762.903320
6402.360780	1.282449	0.297167	13949.167969
6402.361650	0.324738	0.297167	14231.689453
6402.362637	0.085693	0.297167	14316.268555
6402.363565	0.085536	0.297167	14395.645508
6402.364484	0.085558	0.297167	14474.273437
6402.365342	0.085576	0.297167	14547.698242
6402.366301	0.085594	0.297167	14629.783203
6402.367252	0.085569	0.297167	14711.159180
6402.368146	0.085609	0.297167	14787.693359
6402.369055	0.085496	0.297167	14865.409180
6402.369972	0.085463	0.297167	14943.778320
6403.355158	1.173951	0.279845	590.497559
6403.356073	1.621326	0.279845	2074.010498
6403.356951	1.607541	0.279845	3485.431885
6403.357926	1.562531	0.279845	5008.899414
6403.358953	1.514524	0.279845	6564.315430
6403.359840	1.474376	0.279845	7872.087402
6403.360721	1.436704	0.279845	9137.823242
6403.361692	1.397051	0.279845	10494.359375
6403.362651	1.358800	0.279845	11797.448242
6403.363576	1.323245	0.279845	13021.449219
6403.364451	1.164888	0.279845	14040.725586
6403.365489	0.147806	0.279845	14194.148437
6403.366368	0.085459	0.279845	14269.266602
6403.367229	0.085602	0.279845	14342.969727
6403.368153	0.085646	0.279845	14422.106445
6403.369140	0.085671	0.279845	14506.664062
6403.370063	0.085569	0.279845	14585.644531
6403.370941	0.085642	0.279845	14660.837891
6403.371998	0.085594	0.279845	14751.311523
6403.372900	0.085525	0.279845	14828.455078
6403.373774	0.085543	0.279845	14903.219727
6404.426684	1.086343	0.304131	460.609344
6404.427722	1.619502	0.304131	2141.652344
6404.428753	1.599800	0.304131	3791.045898
6404.429630	1.557601	0.304131	5157.062012
6404.430579	1.513784	0.304131	6593.643066
6404.431641	1.466008	0.304131	8150.543945
6404.432575	1.426644	0.304131	9483.029297
6404.433446	1.390206	0.304131	10693.898437
6404.434503	1.349194	0.304131	12119.997070
6404.435513	1.310467	0.304131	13443.569336
6404.436411	0.813256	0.304131	14173.873047
6404.437383	0.099148	0.304131	14270.245117
6404.438428	0.085679	0.304131	14359.779297
6404.439345	0.085627	0.304131	14438.299805
6404.440207	0.085649	0.304131	14512.129883
6404.441292	0.085664	0.304131	14605.075195
6404.442280	0.085664	0.304131	14689.710937
6404.443169	0.085558	0.304131	14765.771484
6404.444027	0.085649	0.304131	14839.258789
6404.445119	0.085660	0.304131	14932.799805
6404.446023	0.085510	0.304131	15010.101562
6405.430316	1.181690	0.289078	635.748962
6405.431377	1.623937	0.289078	2358.745850
6405.432341	1.596101	0.289078	3897.387207
6405.433211	1.554774	0.289078	5250.041016
6405.434256	1.506453	0.289078	6824.284180
6405.435292	1.460581	0.289078	8337.446289
6405.436188	1.422473	0.289078	9611.982422
6405.437126	1.384504	0.289078	10910.647461
6405.438182	1.343101	0.289078	12328.961914
6405.439128	1.306915	0.289078	13565.303711
6405.439997	0.718436	0.289078	14189.625000
6405.441052	0.089374	0.289078	14283.914062
6405.442070	0.085576	0.289078	14371.030273
6405.442951	0.085554	0.289078	14446.403320
6405.443930	0.085660	0.289078	14530.264648
6405.444967	0.085558	0.289078	14618.988281
6405.445871	0.085587	0.289078	14696.359375
6405.446729	0.085613	0.289078	14769.815430
6405.447798	0.085616	0.289078	14861.339844
6405.448801	0.085510	0.289078	14947.106445
6405.449671	0.085591	0.289078	15021.570312
6406.501819	1.084640	0.315725	457.718048
6406.502745	1.613463	0.315725	1951.784912
6406.503697	1.608083	0.315725	3482.680420
6406.504625	1.564581	0.315725	4934.611816
6406.505502	1.523335	0.315725	6270.576660
6406.506507	1.477178	0.315725	7755.140137
6406.507450	1.436946	0.315725	9110.179687
6406.508379	1.399164	0.315725	10410.002930
6406.509246	1.364139	0.315725	11592.711914
6406.510218	1.327185	0.315725	12882.735352
6406.511167	1.207522	0.315725	14028.673828
6406.512045	0.219005	0.315725	14220.959961
6406.512964	0.085587	0.315725	14299.614258
6406.513906	0.085584	0.315725	14380.234375
6406.514847	0.085576	0.315725	14460.761719
6406.515720	0.085558	0.315725	14535.454102
6406.516677	0.085554	0.315725	14617.329102
6406.517635	0.085587	0.315725	14699.321289
6406.518557	0.085668	0.315725	14778.306641
6406.519419	0.085551	0.315725	14852.050781
6406.520373	0.085580	0.315725	14933.694336
6407.505936	1.147961	0.287438	570.536804
6407.506825	1.619458	0.287438	2010.234863
6407.507698	1.609167	0.287438	3415.038086
6407.508606	1.567320	0.287438	4838.165039
6407.509553	1.523218	0.287438	6280.652344
6407.510486	1.480616	0.287438	7662.067383
6407.511371	1.442183	0.287438	8938.399414
6407.512313	1.402903	0.287438	10259.933594
6407.513256	1.365542	0.287438	11547.639648
6407.514186	1.329664	0.287438	12784.227539
6407.515056	1.276553	0.287438	13894.828125
6407.516040	0.286267	0.287438	14176.514648
6407.516984	0.085591	0.287438	14257.312500
6407.517847	0.085547	0.287438	14331.139648
6407.518721	0.085510	0.287438	14405.875977
6407.519696	0.085547	0.287438	14489.284180
6407.520622	0.085638	0.287438	14568.584961
6407.521485	0.085558	0.287438	14642.421875
6407.522453	0.085547	0.287438	14725.231445
6407.523391	0.085547	0.287438	14805.474609
6407.524278	0.085488	0.287438	14881.302734
6408.577472	1.091115	0.324777	465.905914
6408.578355	1.612998	0.324777	1890.183105
6408.579321	1.608237	0.324777	3443.740234
6408.580281	1.564354	0.324777	4945.520508
6408.581154	1.523199	0.324777	6275.273437
6408.582070	1.481265	0.324777	7632.111816
6408.583018	1.440710	0.324777	8997.905273
6408.583945	1.402317	0.324777	10297.852539
6408.584827	1.367106	0.324777	11503.639648
6408.585790	1.330085	0.324777	12784.511719
6408.586723	1.264893	0.324777	13964.656250
6408.587644	0.261189	0.324777	14205.210937
6408.588505	0.085756	0.324777	14279.046875
6408.589473	0.085605	0.324777	14361.913086
6408.590419	0.085580	0.324777	14442.872070
6408.591291	0.085635	0.324777	14517.545898
6408.592203	0.085565	0.324777	14595.581055
6408.593158	0.085551	0.324777	14677.282227
6408.594078	0.085547	0.324777	14755.985352
6408.594953	0.085642	0.324777	14830.921875
6408.595869	0.085554	0.324777	14909.289062
6409.582031	1.107198	0.305541	479.416931
6409.582908	1.614965	0.305541	1895.740967
6409.583784	1.611892	0.305541	3307.758301
6409.584734	1.569983	0.305541	4799.242187
6409.585661	1.524712	0.305541	6212.650391
6409.586591	1.482638	0.305541	7591.503906
6409.587475	1.444629	0.305541	8868.555664
6409.588407	1.406030	0.305541	10178.975586
6409.589360	1.368186	0.305541	11482.856445
6409.590282	1.332209	0.305541	12711.153320
6409.591145	1.297401	0.305541	13830.810547
6409.592095	0.372744	0.305541	14184.917969
6409.593042	0.085994	0.305541	14266.353516
6409.593933	0.085657	0.305541	14342.673828
6409.594826	0.085616	0.305541	14419.128906
6409.595762	0.085671	0.305541	14499.317383
6409.596707	0.085686	0.305541	14580.291016
6409.597593	0.085653	0.305541	14656.179687
6409.598518	0.085584	0.305541	14735.344727
6409.599468	0.085554	0.305541	14816.621094
6409.600397	0.085598	0.305541	14896.141602
6410.652102	1.101508	0.320019	479.155792
6410.652976	1.614547	0.320019	1890.269897
6410.653840	1.611269	0.320019	3282.406738
6410.654894	1.564618	0.320019	4931.513672
6410.655772	1.523511	0.320019	6269.156250
6410.656642	1.483740	0.320019	7560.010254
6410.657628	1.442150	0.320019	8981.969727
6410.658572	1.402277	0.320019	10305.718750
6410.659477	1.365886	0.320019	11541.845703
6410.660362	1.331488	0.320019	12720.212891
6410.661388	1.229857	0.320019	13982.046875
6410.662291	0.237916	0.320019	14196.884766
6410.663164	0.085686	0.320019	14271.688477
6410.664091	0.085653	0.320019	14351.088867
6410.665072	0.085573	0.320019	14435.035156
6410.665987	0.085605	0.320019	14513.364258
6410.666861	0.085569	0.320019	14588.151367
6410.667857	0.085598	0.320019	14673.407227
6410.668763	0.085686	0.320019	14751.039062
6410.669683	0.085594	0.320019	14829.786133
6410.670540	0.085646	0.320019	14903.184570
6411.656761	1.193540	0.304788	655.253418
6411.657819	1.624080	0.304788	2373.529785
6411.658715	1.598595	0.304788	3805.870850
6411.659578	1.555928	0.304788	5148.636719
6411.660691	1.506705	0.304788	6825.599609
6411.661667	1.463258	0.304788	8253.739258
6411.662532	1.426370	0.304788	9487.548828
6411.663596	1.383398	0.304788	10959.484375
6411.664635	1.342950	0.304788	12354.809570
6411.665521	1.308479	0.304788	13514.122070
6411.666390	0.775228	0.304788	14187.794922
6411.667411	0.091692	0.304788	14281.412109
6411.668378	0.085591	0.304788	14364.178711
6411.669256	0.085547	0.304788	14439.289062
6411.670148	0.085671	0.304788	14515.708008
6411.671241	0.085649	0.304788	14609.323242
6411.672134	0.085605	0.304788	14685.768555
6411.672996	0.085624	0.304788	14759.576172
6411.674032	0.085657	0.304788	14848.316406
6411.675001	0.085569	0.304788	14931.232422
6411.675889	0.085660	0.304788	15007.298828
6412.727766	1.116039	0.331359	493.289154
6412.728640	1.615261	0.331359	1905.027588
6412.729597	1.608604	0.331359	3444.461182
6412.730533	1.565116	0.331359	4909.409668
6412.731420	1.523496	0.331359	6260.750977
6412.732326	1.483099	0.331359	7604.438965
6412.733251	1.441663	0.331359	8937.976562
6412.734209	1.402639	0.331359	10281.705078
6412.735110	1.367194	0.331359	11513.546875
6412.736043	1.330741	0.331359	12755.127930
6412.736997	1.260809	0.331359	13957.940430
6412.737922	0.272443	0.331359	14209.950195
6412.738779	0.085887	0.331359	14283.555664
6412.739804	0.085756	0.331359	14371.455078
6412.740857	0.085671	0.331359	14461.666992
6412.741777	0.085704	0.331359	14540.514648
6412.742642	0.085638	0.331359	14614.591797
6412.743699	0.085701	0.331359	14705.177734
6412.744702	0.085638	0.331359	14791.073242
6412.745592	0.085690	0.331359	14867.336914
6412.746549	0.085690	0.331359	14949.341797
6413.733311	1.089005	0.309735	463.916168
6413.734177	1.613108	0.309735	1860.867554
6413.735161	1.608805	0.309735	3443.931641
6413.736092	1.565394	0.309735	4901.313477
6413.737018	1.522471	0.309735	6311.121094
6413.737885	1.482312	0.309735	7596.285645
6413.738860	1.441458	0.309735	9001.707031
6413.739798	1.401958	0.309735	10316.744141
6413.740716	1.365710	0.309735	11570.466797
6413.741580	1.330444	0.309735	12719.970703
6413.742546	1.252518	0.309735	13929.903320
6413.743479	0.261475	0.309735	14173.859375
6413.744355	0.085767	0.309735	14248.991211
6413.745324	0.085543	0.309735	14331.882812
6413.746271	0.085584	0.309735	14412.930664
6413.747164	0.085540	0.309735	14489.317383
6413.748071	0.085569	0.309735	14566.928711
6413.748994	0.085616	0.309735	14645.953125
6413.749941	0.085620	0.309735	14727.035156
6413.750813	0.085624	0.309735	14801.699219
6413.751738	0.085554	0.309735	14880.836914
6414.802880	1.090294	0.327983	465.555634
6414.803750	1.613489	0.327983	1869.290894
6414.804721	1.608783	0.327983	3431.418945
6414.805634	1.565588	0.327983	4860.801270
6414.806570	1.522797	0.327983	6286.138672
6414.807438	1.482367	0.327983	7572.833008
6414.808416	1.440809	0.327983	8981.944336
6414.809366	1.401874	0.327983	10313.724609
6414.810261	1.366370	0.327983	11536.625000
6414.811183	1.330415	0.327983	12763.267578
6414.812145	1.262666	0.327983	13977.952148
6414.813037	0.277507	0.327983	14225.488281
6414.813921	0.085833	0.327983	14301.364258
6414.814916	0.085598	0.327983	14386.534180
6414.815835	0.085580	0.327983	14465.181641
6414.816721	0.085584	0.327983	14541.008789
6414.817662	0.085576	0.327983	14621.536133
6414.818586	0.085627	0.327983	14700.656250
6414.819515	0.085543	0.327983	14780.125977
6414.820408	0.085602	0.327983	14856.568359
6414.821340	0.085569	0.327983	14936.318359
6415.807965	1.111370	0.316494	497.893646
6415.808839	1.615393	0.316494	1909.747192
6415.809734	1.609032	0.316494	3349.830811
6415.810832	1.560505	0.316494	5063.265625
6415.811726	1.518318	0.316494	6420.641602
6415.812594	1.478895	0.316494	7704.322754
6415.813608	1.435367	0.316494	9159.785156
6415.814588	1.395183	0.316494	10527.064453
6415.815465	1.360602	0.316494	11720.312500
6415.816352	1.324794	0.316494	12895.404297
6415.817471	1.040885	0.316494	14060.154297
6415.818363	0.133257	0.316494	14179.019531
6415.819224	0.085562	0.316494	14252.688477
6415.820302	0.085792	0.316494	14345.172852
6415.821270	0.085668	0.316494	14428.099609
6415.822146	0.085693	0.316494	14503.166992
6415.823021	0.085642	0.316494	14578.103516
6415.824119	0.085693	0.316494	14672.195312
6415.824999	0.085642	0.316494	14747.560547
6415.825855	0.085591	0.316494	14820.826172
6415.826886	0.085657	0.316494	14909.138672
6416.878530	1.092323	0.348793	468.606537
6416.879524	1.614921	0.348793	2073.837646
6416.880573	1.600518	0.348793	3752.780762
6416.881483	1.557143	0.348793	5169.781250
6416.882348	1.515355	0.348793	6480.563477
6416.883439	1.468231	0.348793	8082.403809
6416.884427	1.425879	0.348793	9491.171875
6416.885309	1.389745	0.348793	10716.926758
6416.886297	1.350941	0.348793	12051.656250
6416.887385	1.310175	0.348793	13477.125977
6416.888273	0.783534	0.348793	14172.904297
6416.889159	0.097870	0.348793	14259.617187
6416.890253	0.085737	0.348793	14353.414062
6416.891202	0.085616	0.348793	14434.664062
6416.892075	0.085576	0.348793	14509.372070
6416.893086	0.085715	0.348793	14596.030273
6416.894117	0.085613	0.348793	14684.296875
6416.895010	0.085609	0.348793	14760.746094
6416.895926	0.085719	0.348793	14839.264648
6416.896989	0.085704	0.348793	14930.368164
6416.897931	0.085569	0.348793	15010.973633
6417.884648	1.114596	0.329776	522.745483
6417.885550	1.617788	0.329776	1981.990356
6417.886423	1.609907	0.329776	3387.439453
6417.887337	1.568361	0.329776	4820.920898
6417.888297	1.523654	0.329776	6283.628418
6417.889223	1.480792	0.329776	7654.841797
6417.890096	1.442948	0.329776	8914.535156
6417.891012	1.403947	0.329776	10200.549805
6417.891973	1.366186	0.329776	11513.455078
6417.892902	1.330547	0.329776	12749.533203
6417.893785	1.278318	0.329776	13878.288086
6417.894764	0.297975	0.329776	14170.005859
6417.895716	0.085584	0.329776	14251.481445
6417.896607	0.085649	0.329776	14327.794922
6417.897511	0.085547	0.329776	14405.128906
6417.898440	0.085529	0.329776	14484.584961
6417.899387	0.085510	0.329776	14565.563477
6417.900267	0.085609	0.329776	14640.899414
6417.901172	0.085532	0.329776	14718.305664
6417.902128	0.085514	0.329776	14800.056641
6417.903049	0.085554	0.329776	14878.852539
6418.953811	1.221321	0.347371	691.267639
6418.954692	1.622164	0.347371	2120.394287
6418.955561	1.606692	0.347371	3516.609375
6418.956423	1.563889	0.347371	4864.681641
6418.957503	1.516597	0.347371	6502.605957
6418.958383	1.475907	0.347371	7801.404297
6418.959267	1.438385	0.347371	9072.936523
6418.960254	1.397930	0.347371	10452.693359
6418.961201	1.359767	0.347371	11740.392578
6418.962136	1.323893	0.347371	12978.232422
6418.963003	1.185806	0.347371	14006.326172
6418.964039	0.153497	0.347371	14165.349609
6418.964922	0.085496	0.347371	14240.841797
6418.965796	0.085686	0.347371	14315.731445
6418.966774	0.085671	0.347371	14399.517578
6418.967728	0.085598	0.347371	14481.177734
6418.968642	0.085580	0.347371	14559.397461
6418.969503	0.085649	0.347371	14633.141602
6418.970525	0.085697	0.347371	14720.723633
6418.971425	0.085540	0.347371	14797.708984
6418.972296	0.085646	0.347371	14872.306641
6419.960800	1.134445	0.348423	512.768982
6419.961672	1.615470	0.348423	1921.458984
6419.962716	1.604187	0.348423	3596.230225
6419.963767	1.555778	0.348423	5231.352539
6419.964650	1.513997	0.348423	6568.211426
6419.965541	1.472479	0.348423	7880.190430
6419.966638	1.427443	0.348423	9446.094727
6419.967589	1.388423	0.348423	10766.484375
6419.968452	1.354003	0.348423	11934.988281
6419.969468	1.314481	0.348423	13270.500977
6419.970516	0.788917	0.348423	14097.286133
6419.971386	0.097346	0.348423	14181.977539
6419.972315	0.085605	0.348423	14261.504883
6419.973380	0.085690	0.348423	14352.764648
6419.974317	0.085529	0.348423	14432.905273
6419.975183	0.085620	0.348423	14507.052734
6419.976219	0.085631	0.348423	14595.766602
6419.977240	0.085496	0.348423	14683.057617
6419.978134	0.085701	0.348423	14759.673828
6419.979089	0.085679	0.348423	14841.497070
6419.980136	0.085616	0.348423	14931.137695
6421.029346	1.138986	0.361378	529.628296
6421.030241	1.618209	0.361378	1977.925537
6421.031107	1.609589	0.361378	3371.829346
6421.032084	1.565588	0.361378	4901.409180
6421.033034	1.521617	0.361378	6346.945801
6421.033923	1.480756	0.361378	7663.337402
6421.034857	1.441447	0.361378	9009.648437
6421.035786	1.401830	0.361378	10311.948242
6421.036690	1.366014	0.361378	11546.825195
6421.037561	1.331093	0.361378	12706.207031
6421.038533	1.256986	0.361378	13927.998047
6421.039503	0.254626	0.361378	14174.985352
6421.040391	0.085642	0.361378	14251.035156
6421.041301	0.085569	0.361378	14328.902344
6421.042255	0.085554	0.361378	14410.521484
6421.043177	0.085584	0.361378	14489.429687
6421.044042	0.085576	0.361378	14563.453125
6421.044980	0.085562	0.361378	14643.709961
6421.045897	0.085558	0.361378	14722.166992
6421.046818	0.085576	0.361378	14800.982422
6421.047700	0.085620	0.361378	14876.499023
6422.035912	1.096615	0.349776	474.834320
6422.036866	1.613782	0.349776	2014.382202
6422.037776	1.607809	0.349776	3477.488281
6422.038704	1.564925	0.349776	4929.739258
6422.039568	1.523899	0.349776	6246.387695
6422.040520	1.479664	0.349776	7655.028320
6422.041474	1.439202	0.349776	9028.026367
6422.042405	1.401042	0.349776	10332.396484
6422.043284	1.365450	0.349776	11532.626953
6422.044259	1.328243	0.349776	12827.664062
6422.045188	1.257451	0.349776	13995.835937
6422.046055	0.273164	0.349776	14232.668945
6422.047075	0.085576	0.349776	14319.957031
6422.047963	0.085477	0.349776	14395.861328
6422.048878	0.085594	0.349776	14474.180664
6422.049739	0.085660	0.349776	14547.934570
6422.050724	0.085540	0.349776	14632.191406
6422.051625	0.085510	0.349776	14709.236328
6422.052508	0.085547	0.349776	14784.774414
6422.053389	0.085576	0.349776	14860.166992
6422.054353	0.085580	0.349776	14942.666016
6423.104955	1.084175	0.371739	456.437561
6423.105937	1.613599	0.371739	2040.991455
6423.106959	1.601601	0.371739	3677.828125
6423.107853	1.559506	0.371739	5072.026367
6423.108725	1.517904	0.371739	6395.638672
6423.109806	1.470227	0.371739	7984.954102
6423.110749	1.430266	0.371739	9333.695312
6423.111627	1.394008	0.371739	10557.633789
6423.112599	1.356760	0.371739	11876.404297
6423.113616	1.316818	0.371739	13215.607422
6423.114510	1.017649	0.371739	14125.385742
6423.115381	0.132103	0.371739	14240.447266
6423.116452	0.085594	0.371739	14332.119141
6423.117373	0.085510	0.371739	14410.874023
6423.118243	0.085627	0.371739	14485.370117
6423.119204	0.085584	0.371739	14567.616211
6423.120244	0.085627	0.371739	14656.668945
6423.121119	0.085573	0.371739	14731.544922
6423.121981	0.085547	0.371739	14805.286133
6423.123012	0.085525	0.371739	14893.461914
6423.123953	0.085598	0.371739	14974.009766
6424.111577	1.123942	0.355589	486.666687
6424.112544	1.619015	0.355589	2052.254150
6424.113478	1.605458	0.355589	3551.751465
6424.114351	1.563933	0.355589	4917.064941
6424.115325	1.519629	0.355589	6397.183594
6424.116272	1.476976	0.355589	7795.879883
6424.117168	1.438151	0.355589	9084.462891
6424.118094	1.400478	0.355589	10381.305664
6424.119033	1.362722	0.355589	11660.901367
6424.119954	1.326259	0.355589	12882.385742
6424.120850	1.250328	0.355589	14002.679687
6424.121850	0.223652	0.355589	14226.332031
6424.122897	0.085602	0.355589	14315.957031
6424.123845	0.085562	0.355589	14397.069336
6424.124717	0.085554	0.355589	14471.672852
6424.125740	0.085686	0.355589	14559.330078
6424.126762	0.085602	0.355589	14646.815430
6424.127649	0.085620	0.355589	14722.760742
6424.128574	0.085613	0.355589	14801.952148
6424.129638	0.085602	0.355589	14893.032227
6424.130576	0.085543	0.355589	14973.271484
6425.181179	1.177017	0.383945	568.499023
6425.182100	1.620092	0.383945	2060.603516
6425.182992	1.607142	0.383945	3494.174316
6425.183911	1.564131	0.383945	4931.610352
6425.184878	1.519402	0.383945	6400.872070
6425.185805	1.477441	0.383945	7770.459961
6425.186673	1.439645	0.383945	9020.071289
6425.187637	1.400420	0.383945	10370.076172
6425.188588	1.363077	0.383945	11666.363281
6425.189483	1.327994	0.383945	12854.917969
6425.190377	1.255071	0.383945	13976.951172
6425.191328	0.235583	0.383945	14200.991211
6425.192251	0.085514	0.383945	14279.920898
6425.193137	0.085463	0.383945	14355.640625
6425.194052	0.085529	0.383945	14433.899414
6425.195002	0.085543	0.383945	14515.165039
6425.195913	0.085562	0.383945	14593.111328
6425.196781	0.085565	0.383945	14667.381836
6425.197736	0.085594	0.383945	14749.125000
6425.198670	0.085525	0.383945	14829.004883
6425.199600	0.085646	0.383945	14908.655273
6426.187208	1.103302	0.361507	478.833069
6426.188076	1.613800	0.361507	1879.611572
6426.188940	1.610456	0.361507	3271.045898
6426.190006	1.563516	0.361507	4937.753418
6426.190906	1.521365	0.361507	6306.981445
6426.191787	1.481624	0.361507	7612.291992
6426.192768	1.440139	0.361507	9025.068359
6426.193728	1.399541	0.361507	10368.627930
6426.194654	1.363114	0.361507	11630.871094
6426.195521	1.328756	0.361507	12782.902344
6426.196569	1.189603	0.361507	14029.606445
6426.197454	0.203163	0.361507	14209.405273
6426.198377	0.085507	0.361507	14288.328125
6426.199236	0.085573	0.361507	14361.834961
6426.200197	0.085573	0.361507	14444.070312
6426.201138	0.085609	0.361507	14524.628906
6426.202013	0.085565	0.361507	14599.498047
6426.203063	0.085638	0.361507	14689.417969
6426.203968	0.085576	0.361507	14766.864258
6426.204887	0.085638	0.361507	14845.566406
6426.205751	0.085624	0.361507	14919.544922
6427.255881	1.229037	0.378257	685.802551
6427.256835	1.623915	0.378257	2235.017334
6427.257708	1.603242	0.378257	3634.647705
6427.258612	1.560289	0.378257	5045.149414
6427.259688	1.511927	0.378257	6671.983398
6427.260569	1.471589	0.378257	7968.453613
6427.261432	1.434437	0.378257	9206.373047
6427.262438	1.392810	0.378257	10607.540039
6427.263413	1.354812	0.378257	11928.481445
6427.264293	1.320773	0.378257	13090.761719
6427.265163	1.054959	0.378257	14008.576172
6427.266289	0.116082	0.378257	14139.284180
6427.267188	0.085540	0.378257	14216.184570
6427.268050	0.085507	0.378257	14289.891602
6427.269165	0.085631	0.378257	14385.370117
6427.270132	0.085547	0.378257	14468.093750
6427.271009	0.085554	0.378257	14543.125000
6427.271890	0.085613	0.378257	14618.549805
6427.272978	0.085646	0.378257	14711.732422
6427.273858	0.085510	0.378257	14786.981445
6427.274714	0.085507	0.378257	14860.174805
6428.262851	1.082801	0.365459	461.273437
6428.263716	1.612478	0.365459	1856.066895
6428.264663	1.609219	0.365459	3379.997070
6428.265613	1.565537	0.365459	4867.257324
6428.266533	1.522980	0.365459	6268.398437
6428.267397	1.482532	0.365459	7549.305664
6428.268353	1.441582	0.365459	8927.458008
6428.269288	1.403214	0.365459	10239.462891
6428.270169	1.367849	0.365459	11444.538086
6428.271140	1.330920	0.365459	12736.861328
6428.272092	1.268573	0.365459	13944.542969
6428.272994	0.278232	0.365459	14195.508789
6428.273872	0.085851	0.365459	14270.885742
6428.274836	0.085620	0.365459	14353.423828
6428.275772	0.085598	0.365459	14433.543945
6428.276660	0.085562	0.365459	14509.522461
6428.277581	0.085594	0.365459	14588.355469
6428.278515	0.085613	0.365459	14668.317383
6428.279436	0.085569	0.365459	14747.125977
6428.280314	0.085605	0.365459	14822.287109
6428.281235	0.085532	0.365459	14901.062500
6429.331402	1.094663	0.388972	475.083740
6429.332283	1.614862	0.388972	1897.777222
6429.333207	1.610167	0.388972	3385.571777
6429.334133	1.565819	0.388972	4835.520508
6429.335082	1.522357	0.388972	6280.237305
6429.335974	1.481770	0.388972	7601.976074
6429.336912	1.441816	0.388972	8954.400391
6429.337870	1.402178	0.388972	10297.686523
6429.338797	1.365395	0.388972	11563.408203
6429.339664	1.330796	0.388972	12717.208008
6429.340613	1.271935	0.388972	13924.274414
6429.341548	0.266338	0.388972	14173.300781
6429.342470	0.085569	0.388972	14252.195312
6429.343329	0.085620	0.388972	14325.743164
6429.344300	0.085635	0.388972	14408.894531
6429.345246	0.085532	0.388972	14489.807617
6429.346131	0.085554	0.388972	14565.523437
6429.347043	0.085609	0.388972	14643.598633
6429.347985	0.085605	0.388972	14724.239258
6429.348867	0.085529	0.388972	14799.675781
6429.349739	0.085627	0.388972	14874.342773
6430.338486	1.093802	0.372573	458.303223
6430.339532	1.621688	0.372573	2154.588867
6430.340429	1.604180	0.372573	3593.538086
6430.341306	1.563365	0.372573	4964.609375
6430.342268	1.519222	0.372573	6426.101562
6430.343233	1.474962	0.372573	7849.439941
6430.344160	1.435364	0.372573	9180.022461
6430.345028	1.399138	0.372573	10394.474609
6430.346065	1.359203	0.372573	11803.967773
6430.346948	1.324241	0.372573	12973.272461
6430.347825	1.222537	0.372573	14045.437500
6430.348741	0.228948	0.372573	14255.153320
6430.349752	0.085444	0.372573	14341.537109
6430.350648	0.085580	0.372573	14418.216797
6430.351533	0.085587	0.372573	14493.961914
6430.352518	0.085697	0.372573	14578.373047
6430.353437	0.085638	0.372573	14657.075195
6430.354358	0.085631	0.372573	14735.941406
6430.355226	0.085584	0.372573	14810.227539
6430.356267	0.085543	0.372573	14899.278320
6430.357154	0.085532	0.372573	14975.145508
6431.406534	1.097476	0.397049	478.499390
6431.407410	1.614251	0.397049	1892.582886
6431.408379	1.608267	0.397049	3450.993164
6431.409406	1.560223	0.397049	5053.342773
6431.410294	1.518787	0.397049	6402.025391
6431.411160	1.478701	0.397049	7682.580566
6431.412220	1.434342	0.397049	9202.983398
6431.413159	1.395366	0.397049	10513.232422
6431.414031	1.360873	0.397049	11699.913086
6431.414980	1.324102	0.397049	12956.485352
6431.416026	1.049366	0.397049	14054.123047
6431.416927	0.138215	0.397049	14178.655273
6431.417794	0.085547	0.397049	14252.824219
6431.418835	0.085638	0.397049	14341.973633
6431.419788	0.085503	0.397049	14423.458008
6431.420663	0.085620	0.397049	14498.375977
6431.421575	0.085649	0.397049	14576.488281
6431.422625	0.085587	0.397049	14666.354492
6431.423516	0.085518	0.397049	14742.550781
6431.424377	0.085624	0.397049	14816.272461
6431.425411	0.085649	0.397049	14904.833984
6432.414203	1.131687	0.381238	537.551331
6432.415100	1.617327	0.381238	1988.293213
6432.415981	1.608981	0.381238	3405.805176
6432.416899	1.566756	0.381238	4844.087891
6432.417841	1.521815	0.381238	6277.637695
6432.418782	1.478738	0.381238	7669.129883
6432.419682	1.440688	0.381238	8965.750000
6432.420606	1.401801	0.381238	10261.013672
6432.421573	1.363846	0.381238	11579.853516
6432.422500	1.328166	0.381238	12811.063477
6432.423370	1.261677	0.381238	13908.722656
6432.424352	0.256344	0.381238	14160.452148
6432.425294	0.085635	0.381238	14241.120117
6432.426183	0.085616	0.381238	14317.233398
6432.427099	0.085580	0.381238	14395.625000
6432.428005	0.085558	0.381238	14473.140625
6432.428947	0.085613	0.381238	14553.788086
6432.429837	0.085624	0.381238	14629.993164
6432.430745	0.085562	0.381238	14707.682617
6432.431694	0.085573	0.381238	14788.890625
6432.432579	0.085620	0.381238	14864.664062
6433.482174	1.095117	0.408715	467.615051
6433.483134	1.616960	0.408715	2019.896973
6433.484070	1.605681	0.408715	3522.814453
6433.484960	1.564248	0.408715	4914.995117
6433.485881	1.522467	0.408715	6317.187500
6433.486818	1.478708	0.408715	7702.737305
6433.487760	1.438125	0.408715	9057.451172
6433.488662	1.401028	0.408715	10321.178711
6433.489588	1.364249	0.408715	11584.473633
6433.490548	1.327269	0.408715	12858.652344
6433.491470	1.245454	0.408715	14006.960937
6433.492343	0.258318	0.408715	14232.472656
6433.493319	0.085646	0.408715	14316.062500
6433.494224	0.085532	0.408715	14393.468750
6433.495134	0.085521	0.408715	14471.292969
6433.496010	0.085642	0.408715	14546.315430
6433.496980	0.085620	0.408715	14629.367187
6433.497931	0.085584	0.408715	14710.756836
6433.498821	0.085620	0.408715	14786.958984
6433.499724	0.085594	0.408715	14864.250977
6433.500679	0.085525	0.408715	14945.927734
6434.488886	1.203241	0.387232	643.733887
6434.489794	1.622062	0.387232	2116.565918
6434.490671	1.605670	0.387232	3524.738770
6434.491535	1.563329	0.387232	4875.455078
6434.492607	1.515732	0.387232	6500.320312
6434.493501	1.475266	0.387232	7819.208008
6434.494378	1.437788	0.387232	9080.148437
6434.495380	1.397271	0.387232	10480.213867
6434.496303	1.359829	0.387232	11735.335937
6434.497227	1.324406	0.387232	12959.086914
6434.498091	1.184018	0.387232	13982.079102
6434.499103	0.168728	0.387232	14152.832031
6434.499998	0.085576	0.387232	14229.422852
6434.500873	0.085708	0.387232	14304.416992
6434.501821	0.085558	0.387232	14385.525391
6434.502776	0.085576	0.387232	14467.250977
6434.503701	0.085565	0.387232	14546.398437
6434.504575	0.085653	0.387232	14621.258789
6434.505615	0.085624	0.387232	14710.307617
6434.506506	0.085554	0.387232	14786.536133
6434.507374	0.085620	0.387232	14860.854492
6435.556805	1.094945	0.408344	474.111206
6435.557670	1.612698	0.408344	1869.094727
6435.558772	1.603359	0.408344	3635.996826
6435.559668	1.560692	0.408344	5034.376953
6435.560543	1.519955	0.408344	6364.337402
6435.561560	1.474464	0.408344	7863.867187
6435.562561	1.431182	0.408344	9296.480469
6435.563453	1.394396	0.408344	10540.281250
6435.564323	1.358741	0.408344	11722.386719
6435.565427	1.318052	0.408344	13177.515625
6435.566342	1.027291	0.408344	14117.487305
6435.567213	0.133993	0.408344	14234.195312
6435.568288	0.085649	0.408344	14326.268555
6435.569265	0.085616	0.408344	14409.916016
6435.570139	0.085547	0.408344	14484.683594
6435.571005	0.085594	0.408344	14558.808594
6435.572091	0.085649	0.408344	14651.824219
6435.572988	0.085565	0.408344	14728.576172
6435.573856	0.085587	0.408344	14802.866211
6435.574862	0.085679	0.408344	14889.058594
6435.575848	0.085649	0.408344	14973.508789
6436.564937	1.101398	0.398104	482.412201
6436.565813	1.614181	0.398104	1896.434692
6436.566731	1.609915	0.398104	3374.336182
6436.567691	1.566149	0.398104	4877.838867
6436.568618	1.522577	0.398104	6289.267578
6436.569492	1.482305	0.398104	7584.801758
6436.570425	1.441626	0.398104	8929.838867
6436.571361	1.402485	0.398104	10242.565430
6436.572286	1.366183	0.398104	11506.285156
6436.573168	1.331235	0.398104	12680.434570
6436.574140	1.262878	0.398104	13907.952148
6436.575105	0.269875	0.398104	14168.381836
6436.575996	0.085580	0.398104	14244.633789
6436.576925	0.085507	0.398104	14324.069336
6436.577981	0.085620	0.398104	14414.484375
6436.578979	0.085521	0.398104	14499.834961
6436.579860	0.085569	0.398104	14575.220703
6436.580835	0.085562	0.398104	14658.643555
6436.581874	0.085701	0.398104	14747.686523
6436.582782	0.085627	0.398104	14825.436523
6436.583638	0.085536	0.398104	14898.655273
6437.633017	1.125652	0.420385	536.935913
6437.633947	1.619235	0.420385	2042.824219
6437.634821	1.607384	0.420385	3447.677734
6437.635698	1.566035	0.420385	4821.090820
6437.636644	1.521464	0.420385	6260.395508
6437.637607	1.478441	0.420385	7684.134277
6437.638499	1.440311	0.420385	8968.891602
6437.639413	1.402350	0.420385	10250.639648
6437.640373	1.364583	0.420385	11560.638672
6437.641296	1.328709	0.420385	12787.037109
6437.642171	1.282687	0.420385	13909.387695
6437.643124	0.276610	0.420385	14172.997070
6437.644058	0.085660	0.420385	14253.003906
6437.644978	0.085536	0.420385	14331.697266
6437.645838	0.085613	0.420385	14405.324219
6437.646779	0.085551	0.420385	14485.827148
6437.647734	0.085551	0.420385	14567.528320
6437.648626	0.085613	0.420385	14643.894531
6437.649536	0.085525	0.420385	14721.722656
6437.650480	0.085558	0.420385	14802.489258
6437.651407	0.085620	0.420385	14881.859375
6438.640065	1.092557	0.401416	469.799652
6438.640928	1.612291	0.401416	1861.207031
6438.641969	1.605729	0.401416	3532.770508
6438.642862	1.563860	0.401416	4929.297363
6438.643735	1.522899	0.401416	6258.788086
6438.644680	1.480217	0.401416	7657.593750
6438.645667	1.438209	0.401416	9077.106445
6438.646566	1.400266	0.401416	10335.945312
6438.647454	1.365293	0.401416	11548.325195
6438.648497	1.325076	0.401416	12930.378906
6438.649402	1.211638	0.401416	14026.911133
6438.650280	0.221561	0.401416	14221.442383
6438.651149	0.085587	0.401416	14295.817383
6438.652188	0.085540	0.401416	14384.693359
6438.653080	0.085525	0.401416	14460.981445
6438.653953	0.085584	0.401416	14535.696289
6438.654951	0.085708	0.401416	14621.232422
6438.655877	0.085609	0.401416	14700.506836
6438.656790	0.085584	0.401416	14778.644531
6438.657648	0.085587	0.401416	14852.078125
6438.658687	0.085664	0.401416	14941.083008
6439.708643	1.137810	0.422338	526.806091
6439.709522	1.616682	0.422338	1947.869629
6439.710498	1.606179	0.422338	3515.500488
6439.711552	1.556763	0.422338	5156.328125
6439.712474	1.513850	0.422338	6552.097656
6439.713343	1.473582	0.422338	7832.640137
6439.714444	1.427897	0.422338	9404.753906
6439.715445	1.386526	0.422338	10792.666016
6439.716341	1.351534	0.422338	12003.640625
6439.717342	1.313401	0.422338	13318.354492
6439.718412	0.722106	0.422338	14091.007812
6439.719295	0.093062	0.422338	14173.180664
6439.720154	0.085591	0.422338	14246.703125
6439.721194	0.085642	0.422338	14335.770508
6439.722156	0.085543	0.422338	14418.063477
6439.723071	0.085580	0.422338	14496.369141
6439.723932	0.085642	0.422338	14570.107422
6439.725022	0.085584	0.422338	14663.393555
6439.725896	0.085624	0.422338	14738.228516
6439.726772	0.085594	0.422338	14813.208984
6439.727750	0.085682	0.422338	14897.005859
6440.716789	1.158669	0.415958	541.098633
6440.717706	1.619143	0.415958	2025.852783
6440.718598	1.607304	0.415958	3459.567383
6440.719520	1.563882	0.415958	4901.466309
6440.720483	1.519449	0.415958	6364.696289
6440.721405	1.477808	0.415958	7727.234863
6440.722279	1.439908	0.415958	8985.714844
6440.723248	1.400922	0.415958	10343.208008
6440.724188	1.363301	0.415958	11624.710937
6440.725100	1.327599	0.415958	12835.481445
6440.725975	1.260223	0.415958	13938.176758
6440.726945	0.249448	0.415958	14180.141602
6440.727894	0.085653	0.415958	14261.426758
6440.728767	0.085558	0.415958	14336.119141
6440.729687	0.085554	0.415958	14414.829102
6440.730632	0.085565	0.415958	14495.688477
6440.731550	0.085605	0.415958	14574.274414
6440.732425	0.085569	0.415958	14649.147461
6440.733395	0.085580	0.415958	14732.160156
6440.734307	0.085580	0.415958	14810.208984
6440.735240	0.085580	0.415958	14890.054687
6441.783253	1.108715	0.422862	486.725708
6441.784129	1.614261	0.422862	1900.818726
6441.785069	1.609003	0.422862	3413.281250
6441.786018	1.564871	0.422862	4898.343750
6441.786931	1.521698	0.422862	6287.654297
6441.787813	1.481495	0.422862	7594.333008
6441.788740	1.441461	0.422862	8930.567383
6441.789683	1.401976	0.422862	10252.630859
6441.790603	1.365959	0.422862	11509.313477
6441.791476	1.331334	0.422862	12671.568359
6441.792443	1.276344	0.422862	13905.792969
6441.793398	0.288142	0.422862	14180.968750
6441.794284	0.085770	0.422862	14256.960937
6441.795207	0.085591	0.422862	14335.960937
6441.796144	0.085551	0.422862	14416.122070
6441.797064	0.085543	0.422862	14494.822266
6441.797953	0.085624	0.422862	14570.941406
6441.798865	0.085591	0.422862	14649.000000
6441.799825	0.085573	0.422862	14731.149414
6441.800744	0.085496	0.422862	14809.719727
6441.801622	0.085569	0.422862	14884.849609
6442.792381	1.080055	0.425682	461.183441
6442.793244	1.611775	0.425682	1852.145264
6442.794296	1.604982	0.425682	3540.585937
6442.795267	1.559989	0.425682	5055.334961
6442.796149	1.518673	0.425682	6394.804687
6442.797051	1.476987	0.425682	7727.047363
6442.798131	1.432482	0.425682	9274.127930
6442.799015	1.395355	0.425682	10507.622070
6442.799879	1.360884	0.425682	11683.425781
6442.800897	1.321241	0.425682	13028.449219
6442.801872	1.071515	0.425682	14073.175781
6442.802756	0.145774	0.425682	14202.040039
6442.803619	0.085481	0.425682	14275.810547
6442.804736	0.085657	0.425682	14371.489258
6442.805630	0.085649	0.425682	14448.059570
6442.806504	0.085551	0.425682	14522.831055
6442.807487	0.085675	0.425682	14607.049805
6442.808492	0.085532	0.425682	14693.009766
6442.809385	0.085598	0.425682	14769.449219
6442.810245	0.085540	0.425682	14843.013672
6442.811337	0.085653	0.425682	14936.546875
6443.859398	1.094202	0.436164	471.600922
6443.860445	1.619249	0.436164	2166.954834
6443.861476	1.597698	0.436164	3814.181152
6443.862366	1.555532	0.436164	5198.604980
6443.863324	1.511686	0.436164	6646.799805
6443.864378	1.464217	0.436164	8190.084961
6443.865308	1.424747	0.436164	9515.099609
6443.866169	1.388580	0.436164	10710.666992
6443.867248	1.347480	0.436164	12164.598633
6443.868260	1.308468	0.436164	13488.768555
6443.869143	0.777806	0.436164	14175.571289
6443.870113	0.096526	0.436164	14269.201172
6443.871166	0.085594	0.436164	14359.332031
6443.872074	0.085616	0.436164	14437.071289
6443.872945	0.085587	0.436164	14511.618164
6443.874037	0.085649	0.436164	14605.147461
6443.875030	0.085638	0.436164	14690.186523
6443.875923	0.085605	0.436164	14766.631836
6443.876904	0.085690	0.436164	14850.693359
6443.877950	0.085576	0.436164	14940.206055
6443.878847	0.085649	0.436164	15017.033203
6444.868592	1.145164	0.428305	547.388184
6444.869527	1.619740	0.428305	2061.845215
6444.870456	1.604846	0.428305	3552.747314
6444.871321	1.563955	0.428305	4905.568359
6444.872295	1.519922	0.428305	6385.972168
6444.873245	1.477075	0.428305	7789.193359
6444.874139	1.438008	0.428305	9074.772461
6444.875016	1.400834	0.428305	10303.303711
6444.875971	1.362902	0.428305	11604.875000
6444.876921	1.326321	0.428305	12864.879883
6444.877817	1.257946	0.428305	13991.999023
6444.878740	0.251678	0.428305	14224.297852
6444.879691	0.085532	0.428305	14305.638672
6444.880604	0.085558	0.428305	14383.752930
6444.881470	0.085488	0.428305	14457.786133
6444.882432	0.085562	0.428305	14540.096680
6444.883380	0.085554	0.428305	14621.202148
6444.884282	0.085554	0.428305	14698.372070
6444.885150	0.085536	0.428305	14772.617187
6444.886092	0.085510	0.428305	14853.167969
6444.887037	0.085547	0.428305	14934.009766
6445.935059	1.110656	0.447423	488.688446
6445.935941	1.614584	0.447423	1912.751343
6445.936822	1.610541	0.447423	3331.637695
6445.937779	1.567734	0.447423	4831.959473
6445.938708	1.523533	0.447423	6247.321289
6445.939634	1.481404	0.447423	7619.101074
6445.940506	1.443442	0.447423	8877.783203
6445.941534	1.400387	0.447423	10317.380859
6445.942488	1.362785	0.447423	11617.477539
6445.943399	1.327225	0.447423	12826.580078
6445.944278	1.251639	0.447423	13926.771484
6445.945235	0.252312	0.447423	14168.234375
6445.946181	0.085529	0.447423	14249.144531
6445.947075	0.085529	0.447423	14325.607422
6445.947990	0.085507	0.447423	14403.845703
6445.948912	0.085569	0.447423	14482.740234
6445.949833	0.085602	0.447423	14561.579102
6445.950694	0.085507	0.447423	14635.200195
6445.951709	0.085573	0.447423	14722.056641
6445.952624	0.085591	0.447423	14800.372070
6445.953496	0.085532	0.447423	14874.956055
6446.944284	1.177679	0.435854	601.794189
6446.945181	1.620355	0.435854	2055.252930
6446.946063	1.606688	0.435854	3472.352051
6446.947053	1.560718	0.435854	5017.462402
6446.948051	1.514070	0.435854	6528.503906
6446.948948	1.473787	0.435854	7850.490234
6446.949813	1.435239	0.435854	9091.972656
6446.950929	1.391330	0.435854	10644.697266
6446.951847	1.354742	0.435854	11888.350586
6446.952724	1.320857	0.435854	13046.742187
6446.953740	0.991802	0.435854	14054.413086
6446.954727	0.110178	0.435854	14163.159180
6446.955617	0.085507	0.435854	14239.259766
6446.956473	0.085613	0.435854	14312.543945
6446.957560	0.085613	0.435854	14405.605469
6446.958449	0.085580	0.435854	14481.685547
6446.959322	0.085558	0.435854	14556.377930
6446.960292	0.085660	0.435854	14639.468750
6446.961296	0.085602	0.435854	14725.413086
6446.962186	0.085649	0.435854	14801.640625
6446.963048	0.085602	0.435854	14875.429687
6448.010265	1.176090	0.457937	591.573303
6448.011260	1.623219	0.457937	2206.676270
6448.012156	1.602202	0.457937	3642.249268
6448.013177	1.554869	0.457937	5229.770996
6448.014232	1.506343	0.457937	6818.962891
6448.015120	1.465792	0.457937	8120.586426
6448.015983	1.427399	0.457937	9352.431641
6448.017089	1.384204	0.457937	10883.361328
6448.018058	1.346418	0.457937	12188.041016
6448.018922	1.312899	0.457937	13322.385742
6448.019956	0.749762	0.457937	14097.639648
6448.020988	0.090341	0.457937	14190.871094
6448.021862	0.085616	0.457937	14265.700195
6448.022769	0.085642	0.457937	14343.377930
6448.023842	0.085767	0.457937	14435.405273
6448.024788	0.085594	0.457937	14516.377930
6448.025656	0.085598	0.457937	14590.676758
6448.026685	0.085671	0.457937	14678.833008
6448.027720	0.085532	0.457937	14767.358398
6448.028604	0.085591	0.457937	14843.020508
6448.029547	0.085642	0.457937	14923.781250
6449.019873	1.136104	0.455290	515.791016
6449.020746	1.614990	0.455290	1925.677490
6449.021680	1.607710	0.455290	3427.278564
6449.022621	1.563852	0.455290	4898.863770
6449.023551	1.520797	0.455290	6313.205078
6449.024434	1.480001	0.455290	7620.045898
6449.025400	1.439443	0.455290	9010.547852
6449.026358	1.400174	0.455290	10351.915039
6449.027255	1.364110	0.455290	11575.521484
6449.028163	1.329346	0.455290	12782.567383
6449.029096	1.248029	0.455290	13946.978516
6449.030039	0.244863	0.455290	14177.884766
6449.030901	0.085671	0.455290	14251.733398
6449.031877	0.085591	0.455290	14335.270508
6449.032825	0.085605	0.455290	14416.424805
6449.033693	0.085609	0.455290	14490.733398
6449.034606	0.085675	0.455290	14568.955078
6449.035558	0.085613	0.455290	14650.458008
6449.036470	0.085551	0.455290	14728.480469
6449.037362	0.085605	0.455290	14804.840820
6449.038276	0.085540	0.455290	14883.024414
6450.085852	1.119089	0.471021	501.352051
6450.086726	1.615067	0.471021	1912.920776
6450.087686	1.606761	0.471021	3455.411621
6450.088590	1.564578	0.471021	4869.790039
6450.089513	1.522119	0.471021	6274.706055
6450.090384	1.481078	0.471021	7564.724609
6450.091381	1.439377	0.471021	8999.784180
6450.092301	1.401460	0.471021	10289.126953
6450.093180	1.366641	0.471021	11490.404297
6450.094133	1.330558	0.471021	12758.425781
6450.095057	1.273414	0.471021	13935.060547
6450.095952	0.290848	0.471021	14195.370117
6450.096823	0.085953	0.471021	14270.235352
6450.097850	0.085584	0.471021	14358.129883
6450.098768	0.085569	0.471021	14436.681641
6450.099651	0.085547	0.471021	14512.219727
6450.100531	0.085562	0.471021	14587.513672
6450.101512	0.085554	0.471021	14671.442383
6450.102451	0.085551	0.471021	14751.774414
6450.103340	0.085635	0.471021	14827.903320
6450.104264	0.085547	0.471021	14906.948242
6451.095483	1.094392	0.464060	462.927856
6451.096545	1.620333	0.464060	2183.721680
6451.097549	1.597998	0.464060	3788.111816
6451.098444	1.555920	0.464060	5180.660645
6451.099420	1.511217	0.464060	6655.608398
6451.100481	1.463829	0.464060	8208.731445
6451.101393	1.424703	0.464060	9508.060547
6451.102263	1.387925	0.464060	10715.554687
6451.103344	1.346686	0.464060	12171.322266
6451.104337	1.308662	0.464060	13470.824219
6451.105236	0.781421	0.464060	14173.321289
6451.106235	0.095376	0.464060	14268.601562
6451.107285	0.085587	0.464060	14358.467773
6451.108164	0.085521	0.464060	14433.640625
6451.109025	0.085594	0.464060	14507.337891
6451.110055	0.085693	0.464060	14595.601562
6451.111023	0.085507	0.464060	14678.372070
6451.111922	0.085543	0.464060	14755.275391
6451.112793	0.085649	0.464060	14829.875977
6451.113881	0.085653	0.464060	14923.066406
6451.114792	0.085664	0.464060	15001.106445
6452.160957	1.091162	0.484342	467.017365
6452.161821	1.612101	0.484342	1859.872437
6452.162914	1.602477	0.484342	3611.379639
6452.163944	1.554785	0.484342	5212.808594
6452.164844	1.512825	0.484342	6574.350586
6452.165797	1.470524	0.484342	7975.759766
6452.166857	1.424780	0.484342	9486.027344
6452.167808	1.386233	0.484342	10804.334961
6452.168670	1.351747	0.484342	11969.541016
6452.169748	1.311222	0.484342	13383.038086
6452.170754	0.709611	0.484342	14096.906250
6452.171637	0.093314	0.484342	14179.302734
6452.172610	0.085598	0.484342	14262.589844
6452.173655	0.085675	0.484342	14352.120117
6452.174560	0.085627	0.484342	14429.613281
6452.175418	0.085576	0.484342	14503.038086
6452.176491	0.085686	0.484342	14594.979492
6452.177483	0.085558	0.484342	14679.852539
6452.178350	0.085525	0.484342	14754.002930
6452.179337	0.085726	0.484342	14838.615234
6452.180384	0.085646	0.484342	14928.286133
6453.171672	1.108121	0.464817	505.303314
6453.172568	1.616484	0.464817	1953.673340
6453.173434	1.609574	0.464817	3347.564453
6453.174411	1.565753	0.464817	4877.305176
6453.175368	1.521244	0.464817	6333.135742
6453.176265	1.479979	0.464817	7660.676758
6453.177152	1.441179	0.464817	8939.002930
6453.178082	1.401841	0.464817	10242.714844
6453.179042	1.364249	0.464817	11552.394531
6453.179936	1.329855	0.464817	12741.285156
6453.180859	1.261432	0.464817	13905.586914
6453.181822	0.269923	0.464817	14165.522461
6453.182743	0.085616	0.464817	14244.375000
6453.183614	0.085613	0.464817	14318.943359
6453.184554	0.085624	0.464817	14399.429687
6453.185494	0.085584	0.464817	14479.877930
6453.186422	0.085580	0.464817	14559.295898
6453.187282	0.085576	0.464817	14632.891602
6453.188247	0.085580	0.464817	14715.476562
6453.189180	0.085573	0.464817	14795.315430
6453.190067	0.085635	0.464817	14871.273437
6454.236085	1.089778	0.479895	455.527130
6454.237139	1.621121	0.479895	2164.188232
6454.238037	1.603323	0.479895	3603.972168
6454.238916	1.562249	0.479895	4977.188477
6454.239883	1.518054	0.479895	6445.146973
6454.240856	1.473479	0.479895	7878.841797
6454.241783	1.434078	0.479895	9208.232422
6454.242649	1.397919	0.479895	10418.830078
6454.243684	1.358060	0.479895	11824.422852
6454.244566	1.323076	0.479895	12991.375977
6454.245433	1.216011	0.479895	14045.657227
6454.246339	0.224037	0.479895	14248.634766
6454.247347	0.085481	0.479895	14334.799805
6454.248267	0.085536	0.479895	14413.493164
6454.249144	0.085573	0.479895	14488.540039
6454.250135	0.085664	0.479895	14573.433594
6454.251059	0.085594	0.479895	14652.522461
6454.251972	0.085613	0.479895	14730.686523
6454.252839	0.085704	0.479895	14804.992187
6454.253862	0.085551	0.479895	14892.510742
6454.254737	0.085598	0.479895	14967.409180
6455.246857	1.151935	0.463279	574.815491
6455.247734	1.618517	0.463279	1994.254883
6455.248605	1.606304	0.463279	3393.345459
6455.249718	1.556968	0.463279	5126.250488
6455.250678	1.512839	0.463279	6578.576172
6455.251543	1.473527	0.463279	7853.176758
6455.252579	1.429764	0.463279	9334.413086
6455.253615	1.387299	0.463279	10771.654297
6455.254502	1.352230	0.463279	11971.082031
6455.255443	1.315942	0.463279	13209.383789
6455.256520	0.791957	0.463279	14062.321289
6455.257453	0.094958	0.463279	14150.917969
6455.258309	0.085591	0.463279	14224.183594
6455.259336	0.085726	0.463279	14312.224609
6455.260377	0.085496	0.463279	14401.225586
6455.261254	0.085594	0.463279	14476.291992
6455.262215	0.085616	0.463279	14558.569336
6455.263264	0.085591	0.463279	14648.354492
6455.264189	0.085496	0.463279	14727.437500
6455.265055	0.085569	0.463279	14801.540039
6455.266123	0.085653	0.463279	14893.017578
