time (s)	coil I (A)	last det (V)	int current (uC)
6647.329918	1.253500	0.337663	754.606873
6647.330986	1.627617	0.337663	2492.902100
6647.331870	1.598796	0.337663	3906.238037
6647.332749	1.555181	0.337663	5273.241699
6647.333868	1.505537	0.337663	6957.937500
6647.334830	1.462595	0.337663	8364.954102
6647.335698	1.425425	0.337663	9602.222656
6647.336724	1.383171	0.337663	11021.356445
6647.337773	1.342419	0.337663	12429.554687
6647.338670	1.307963	0.337663	13602.796875
6647.339624	0.637826	0.337663	14211.283203
6647.340688	0.086990	0.337663	14303.839844
6647.341621	0.085488	0.337663	14383.600586
6647.342488	0.085562	0.337663	14457.782227
6647.343547	0.085525	0.337663	14548.353516
6647.344545	0.085499	0.337663	14633.681641
6647.345429	0.085503	0.337663	14709.266602
6647.346387	0.085591	0.337663	14791.262695
6647.347446	0.085558	0.337663	14881.868164
6647.348371	0.085496	0.337663	14960.951172
6647.349231	0.085584	0.337663	15034.552734
6648.354249	1.103324	0.359436	467.809357
6648.355127	1.616272	0.359436	1886.896118
6648.356095	1.611046	0.359436	3446.388672
6648.357047	1.567167	0.359436	4938.331055
6648.357928	1.525598	0.359436	6282.382812
6648.358841	1.483564	0.359436	7636.876953
6648.359795	1.442468	0.359436	9012.992187
6648.360722	1.404027	0.359436	10314.525391
6648.361601	1.368896	0.359436	11517.785156
6648.362559	1.332176	0.359436	12794.009766
6648.363490	1.258301	0.359436	13965.488281
6648.364419	0.253726	0.359436	14201.199219
6648.365280	0.085675	0.359436	14274.965820
6648.366267	0.085540	0.359436	14359.393555
6648.367222	0.085518	0.359436	14441.062500
6648.368109	0.085540	0.359436	14516.936523
6648.369031	0.085543	0.359436	14595.807617
6648.369950	0.085543	0.359436	14674.421875
6648.370875	0.085525	0.359436	14753.532227
6648.371750	0.085598	0.359436	14828.430664
6648.372658	0.085587	0.359436	14906.143555
6649.405437	1.170659	0.343831	565.428406
6649.406367	1.623662	0.343831	2075.434082
6649.407247	1.610317	0.343831	3492.513184
6649.408175	1.567302	0.343831	4946.969727
6649.409144	1.522537	0.343831	6422.307617
6649.410073	1.479972	0.343831	7797.201660
6649.410938	1.441985	0.343831	9044.518555
6649.411876	1.402083	0.343831	10359.671875
6649.412830	1.364773	0.343831	11661.665039
6649.413746	1.329159	0.343831	12879.174805
6649.414624	1.241982	0.343831	13969.635742
6649.415602	0.234862	0.343831	14199.331055
6649.416524	0.085543	0.343831	14278.202148
6649.417386	0.085536	0.343831	14351.934570
6649.418335	0.085573	0.343831	14433.142578
6649.419264	0.085492	0.343831	14512.564453
6649.420184	0.085558	0.343831	14591.277344
6649.421040	0.085400	0.343831	14664.379883
6649.421993	0.085459	0.343831	14745.822266
6649.422941	0.085543	0.343831	14826.916992
6649.423834	0.085591	0.343831	14903.349609
6650.427407	1.174039	0.344596	595.237915
6650.428301	1.622996	0.344596	2046.196045
6650.429180	1.611138	0.344596	3462.386230
6650.430123	1.567467	0.344596	4940.507812
6650.431115	1.521002	0.344596	6449.341797
6650.432036	1.478657	0.344596	7811.185059
6650.432925	1.440520	0.344596	9091.807617
6650.433955	1.399032	0.344596	10532.810547
6650.434834	1.362213	0.344596	11730.196289
6650.435756	1.326797	0.344596	12953.502930
6650.436631	1.157538	0.344596	13966.348633
6650.437676	0.157126	0.344596	14130.545898
6650.438568	0.085499	0.344596	14206.811523
6650.439443	0.085477	0.344596	14281.604492
6650.440421	0.085649	0.344596	14365.369141
6650.441370	0.085529	0.344596	14446.536133
6650.442289	0.085551	0.344596	14525.157227
6650.443152	0.085562	0.344596	14598.997070
6650.444178	0.085569	0.344596	14686.791016
6650.445055	0.085543	0.344596	14761.812500
6650.445923	0.085613	0.344596	14836.124023
6651.481535	1.086544	0.348971	462.867859
6651.482402	1.615173	0.348971	1863.223145
6651.483455	1.608124	0.348971	3556.577637
6651.484408	1.563680	0.348971	5046.765137
6651.485286	1.522361	0.348971	6383.397949
6651.486175	1.480664	0.348971	7699.708008
6651.487266	1.436103	0.348971	9266.497070
6651.488150	1.398651	0.348971	10502.904297
6651.489011	1.364198	0.348971	11677.478516
6651.490027	1.324153	0.348971	13022.817383
6651.491005	1.095363	0.348971	14094.082031
6651.491889	0.153585	0.348971	14229.851562
6651.492755	0.085521	0.348971	14303.913086
6651.493874	0.085657	0.348971	14399.762695
6651.494768	0.085594	0.348971	14476.284180
6651.495633	0.085543	0.348971	14550.279297
6651.496683	0.085649	0.348971	14640.210937
6651.497664	0.085573	0.348971	14724.157227
6651.498544	0.085540	0.348971	14799.431641
6651.499400	0.085580	0.348971	14872.687500
6651.500504	0.085646	0.348971	14967.240234
6652.503572	1.169301	0.360065	583.480957
6652.504489	1.623860	0.360065	2072.560547
6652.505351	1.609849	0.360065	3460.250000
6652.506415	1.561077	0.360065	5121.235352
6652.507410	1.514550	0.360065	6628.211914
6652.508299	1.474482	0.360065	7939.026855
6652.509290	1.432896	0.360065	9359.026367
6652.510343	1.389441	0.360065	10822.107422
6652.511248	1.353259	0.360065	12046.806641
6652.512109	1.318553	0.360065	13182.081055
6652.513206	0.823418	0.360065	14085.370117
6652.514194	0.093695	0.360065	14177.940430
6652.515067	0.085562	0.360065	14252.635742
6652.516038	0.085609	0.360065	14335.761719
6652.517088	0.085573	0.360065	14425.613281
6652.517981	0.085565	0.360065	14502.023437
6652.518841	0.085547	0.360065	14575.593750
6652.519933	0.085719	0.360065	14669.199219
6652.520903	0.085551	0.360065	14752.183594
6652.521766	0.085547	0.360065	14826.010742
6652.522834	0.085624	0.360065	14917.457031
6653.557182	1.088921	0.361889	462.791412
6653.558104	1.615869	0.361889	1952.622803
6653.559070	1.609600	0.361889	3507.496094
6653.560003	1.566072	0.361889	4968.641113
6653.560885	1.524488	0.361889	6313.239746
6653.561824	1.481697	0.361889	7704.553223
6653.562757	1.440934	0.361889	9048.944336
6653.563691	1.402760	0.361889	10359.122070
6653.564557	1.367604	0.361889	11543.466797
6653.565528	1.330312	0.361889	12835.200195
6653.566484	1.240759	0.361889	14021.366211
6653.567371	0.248767	0.361889	14242.022461
6653.568275	0.085737	0.361889	14319.529297
6653.569203	0.085543	0.361889	14398.913086
6653.570123	0.085532	0.361889	14477.602539
6653.570983	0.085492	0.361889	14551.125977
6653.571955	0.085598	0.361889	14634.327148
6653.572896	0.085558	0.361889	14714.836914
6653.573783	0.085576	0.361889	14790.743164
6653.574693	0.085554	0.361889	14868.597656
6653.575646	0.085631	0.361889	14950.204102
6654.578158	1.123195	0.362051	523.408691
6654.579048	1.620227	0.362051	1965.410645
6654.579921	1.612438	0.362051	3373.068848
6654.580849	1.568621	0.362051	4828.749023
6654.581814	1.523914	0.362051	6299.325684
6654.582746	1.481906	0.362051	7680.461914
6654.583615	1.443567	0.362051	8934.921875
6654.584594	1.403785	0.362051	10309.227539
6654.585548	1.365996	0.362051	11612.387695
6654.586444	1.330931	0.362051	12804.902344
6654.587376	1.251812	0.362051	13971.590820
6654.588323	0.254506	0.362051	14212.607422
6654.589229	0.085455	0.362051	14290.030273
6654.590101	0.085580	0.362051	14364.656250
6654.591059	0.085514	0.362051	14446.578125
6654.592001	0.085503	0.362051	14527.122070
6654.592925	0.085514	0.362051	14606.136719
6654.593786	0.085503	0.362051	14679.754883
6654.594757	0.085635	0.362051	14762.906250
6654.595703	0.085627	0.362051	14843.910156
6654.596592	0.085627	0.362051	14920.033203
6655.632316	1.085977	0.359916	459.368103
6655.633180	1.614529	0.359916	1854.321045
6655.634180	1.610295	0.359916	3464.616455
6655.635104	1.567236	0.359916	4912.742676
6655.635992	1.525800	0.359916	6267.652832
6655.636912	1.484542	0.359916	7633.431641
6655.637871	1.442919	0.359916	9017.190430
6655.638796	1.404258	0.359916	10316.128906
6655.639664	1.369351	0.359916	11504.725586
6655.640624	1.331620	0.359916	12783.081055
6655.641569	1.254690	0.359916	13968.762695
6655.642484	0.260881	0.359916	14207.468750
6655.643360	0.085649	0.359916	14282.498047
6655.644310	0.085529	0.359916	14363.750000
6655.645254	0.085474	0.359916	14444.437500
6655.646142	0.085496	0.359916	14520.357422
6655.647056	0.085518	0.359916	14598.520508
6655.647973	0.085529	0.359916	14676.950195
6655.648905	0.085529	0.359916	14756.663086
6655.649763	0.085551	0.359916	14830.065430
6655.650782	0.085540	0.359916	14917.230469
6656.654815	1.107978	0.384585	489.726471
6656.655692	1.617883	0.384585	1908.610107
6656.656583	1.612584	0.384585	3345.422607
6656.657551	1.568470	0.384585	4863.702148
6656.658473	1.525529	0.384585	6270.239258
6656.659345	1.485157	0.384585	7565.296875
6656.660265	1.445083	0.384585	8894.773437
6656.661235	1.405195	0.384585	10257.812500
6656.662161	1.368201	0.384585	11524.766602
6656.663044	1.333209	0.384585	12701.990234
6656.664023	1.271653	0.384585	13946.938477
6656.664963	0.265312	0.384585	14196.332031
6656.665879	0.085543	0.384585	14274.689453
6656.666739	0.085507	0.384585	14348.225586
6656.667701	0.085594	0.384585	14430.567383
6656.668632	0.085529	0.384585	14510.194336
6656.669487	0.085594	0.384585	14583.377930
6656.670469	0.085587	0.384585	14667.424805
6656.671413	0.085584	0.384585	14748.215820
6656.672333	0.085554	0.384585	14826.925781
6656.673206	0.085558	0.384585	14901.618164
6657.708999	1.099383	0.375308	469.436737
6657.709944	1.616415	0.375308	1996.948730
6657.710852	1.610804	0.375308	3459.559082
6657.711779	1.567852	0.375308	4912.957520
6657.712642	1.526426	0.375308	6230.262695
6657.713617	1.481320	0.375308	7674.549316
6657.714567	1.440817	0.375308	9043.325195
6657.715487	1.402771	0.375308	10333.875000
6657.716368	1.367274	0.375308	11538.443359
6657.717347	1.329803	0.375308	12840.321289
6657.718301	1.238357	0.375308	14021.713867
6657.719199	0.230394	0.375308	14228.608398
6657.720109	0.085602	0.375308	14306.505859
6657.721039	0.085477	0.375308	14386.000000
6657.721989	0.085620	0.375308	14467.338867
6657.722862	0.085573	0.375308	14542.043945
6657.723769	0.085584	0.375308	14619.667969
6657.724708	0.085569	0.375308	14700.017578
6657.725625	0.085638	0.375308	14778.547852
6657.726508	0.085609	0.375308	14854.140625
6657.727452	0.085573	0.375308	14934.920898
6658.730003	1.184242	0.382317	588.568298
6658.730882	1.621366	0.382317	2013.749023
6658.731754	1.611559	0.382317	3419.028320
6658.732723	1.567203	0.382317	4937.648437
6658.733697	1.521350	0.382317	6419.443359
6658.734607	1.479368	0.382317	7765.667969
6658.735485	1.441512	0.382317	9031.316406
6658.736506	1.399819	0.382317	10460.532227
6658.737404	1.363715	0.382317	11685.148437
6658.738287	1.329188	0.382317	12858.821289
6658.739171	1.217754	0.382317	13935.315430
6658.740211	0.186541	0.382317	14129.317383
6658.741103	0.085496	0.382317	14205.579102
6658.741975	0.085558	0.382317	14280.185547
6658.742975	0.085616	0.382317	14365.801758
6658.743892	0.085573	0.382317	14444.271484
6658.744806	0.085551	0.382317	14522.464844
6658.745665	0.085573	0.382317	14595.971680
6658.746668	0.085565	0.382317	14681.793945
6658.747568	0.085554	0.382317	14758.792969
6658.748442	0.085562	0.382317	14833.574219
6659.784131	1.088558	0.378740	464.814392
6659.784992	1.614580	0.378740	1854.967773
6659.786056	1.607333	0.378740	3565.169922
6659.787001	1.563018	0.378740	5042.221680
6659.787870	1.522339	0.378740	6365.134277
6659.788815	1.479262	0.378740	7763.036133
6659.789862	1.434298	0.378740	9264.746094
6659.790764	1.396901	0.378740	10524.750000
6659.791637	1.362261	0.378740	11714.003906
6659.792688	1.321703	0.378740	13103.113281
6659.793630	1.071643	0.378740	14112.601562
6659.794514	0.143511	0.378740	14239.464844
6659.795443	0.085591	0.378740	14318.978516
6659.796502	0.085602	0.378740	14409.630859
6659.797392	0.085543	0.378740	14485.764648
6659.798254	0.085503	0.378740	14559.467773
6659.799302	0.085605	0.378740	14649.182617
6659.800250	0.085540	0.378740	14730.274414
6659.801119	0.085584	0.378740	14804.646484
6659.802021	0.085613	0.378740	14881.869141
6659.803102	0.085543	0.378740	14974.341797
6660.805187	1.196759	0.379421	672.578613
6660.806243	1.626145	0.379421	2389.787598
6660.807138	1.600049	0.379421	3821.831543
6660.808001	1.557151	0.379421	5165.652832
6660.809105	1.508057	0.379421	6830.547363
6660.810088	1.464661	0.379421	8270.308594
6660.810949	1.427355	0.379421	9499.260742
6660.811986	1.384475	0.379421	10934.960937
6660.813053	1.343972	0.379421	12368.979492
6660.813930	1.309464	0.379421	13517.379883
6660.814867	0.704634	0.379421	14177.622070
6660.815931	0.088253	0.379421	14271.523437
6660.816872	0.085573	0.379421	14352.046875
6660.817736	0.085562	0.379421	14425.971680
6660.818759	0.085587	0.379421	14513.527344
6660.819769	0.085558	0.379421	14599.940430
6660.820655	0.085510	0.379421	14675.702148
6660.821584	0.085584	0.379421	14755.208984
6660.822639	0.085554	0.379421	14845.468750
6660.823590	0.085598	0.379421	14926.873047
6660.824452	0.085591	0.379421	15000.652344
6661.859272	1.090356	0.398447	473.214722
6661.860132	1.615247	0.398447	1862.326782
6661.861060	1.611720	0.398447	3358.002930
6661.862021	1.567288	0.398447	4864.166016
6661.862950	1.524463	0.398447	6280.392090
6661.863827	1.483766	0.398447	7581.654785
6661.864803	1.442227	0.398447	8989.267578
6661.865734	1.403807	0.398447	10296.211914
6661.866602	1.368629	0.398447	11484.181641
6661.867576	1.331558	0.398447	12781.119141
6661.868535	1.260377	0.398447	13989.820312
6661.869434	0.268264	0.398447	14230.990234
6661.870326	0.085712	0.398447	14307.445312
6661.871257	0.085529	0.398447	14387.072266
6661.872203	0.085540	0.398447	14467.993164
6661.873094	0.085565	0.398447	14544.231445
6661.873999	0.085507	0.398447	14621.615234
6661.874958	0.085540	0.398447	14703.647461
6661.875871	0.085543	0.398447	14781.748047
6661.876735	0.085562	0.398447	14855.672852
6661.877704	0.085565	0.398447	14938.585937
6662.881741	1.100046	0.395925	479.620239
6662.882614	1.615774	0.395925	1890.190918
6662.883598	1.609926	0.395925	3474.357910
6662.884531	1.566486	0.395925	4935.889160
6662.885412	1.524891	0.395925	6279.318359
6662.886298	1.484209	0.395925	7594.327637
6662.887241	1.442673	0.395925	8954.768555
6662.888193	1.403705	0.395925	10291.095703
6662.889087	1.368043	0.395925	11514.125977
6662.890000	1.332565	0.395925	12730.757812
6662.890968	1.268408	0.395925	13958.577148
6662.891896	0.268019	0.395925	14207.298828
6662.892767	0.085697	0.395925	14281.941406
6662.893769	0.085499	0.395925	14367.611328
6662.894700	0.085496	0.395925	14447.208008
6662.895574	0.085591	0.395925	14522.014648
6662.896653	0.085463	0.395925	14614.228516
6662.897606	0.085569	0.395925	14695.775391
6662.898530	0.085543	0.395925	14774.817383
6662.899386	0.085605	0.395925	14848.095703
6662.900333	0.085594	0.395925	14929.153320
6663.933903	1.112864	0.391514	486.321472
6663.934780	1.616246	0.391514	1903.769531
6663.935789	1.608706	0.391514	3526.954102
6663.936703	1.565127	0.391514	4957.479980
6663.937629	1.522423	0.391514	6367.243652
6663.938495	1.481451	0.391514	7650.180664
6663.939513	1.438271	0.391514	9114.340820
6663.940416	1.401127	0.391514	10379.558594
6663.941295	1.366377	0.391514	11580.603516
6663.942273	1.329056	0.391514	12880.420898
6663.943231	1.200004	0.391514	14030.024414
6663.944159	0.196560	0.391514	14212.432617
6663.945022	0.085481	0.391514	14286.203125
6663.946047	0.085536	0.391514	14373.876953
6663.946926	0.085496	0.391514	14449.027344
6663.947798	0.085649	0.391514	14523.713867
6663.948709	0.085576	0.391514	14601.673828
6663.949740	0.085543	0.391514	14689.869141
6663.950616	0.085488	0.391514	14764.756836
6663.951494	0.085584	0.391514	14839.899414
6663.952475	0.085584	0.391514	14923.856445
6664.957368	1.082516	0.397093	455.739166
6664.958328	1.614877	0.397093	2006.020752
6664.959370	1.603824	0.397093	3677.206055
6664.960271	1.561355	0.397093	5083.986816
6664.961142	1.520087	0.397093	6407.982422
6664.962217	1.472223	0.397093	7990.622070
6664.963165	1.431676	0.397093	9347.850586
6664.964042	1.395461	0.397093	10571.669922
6664.965002	1.358324	0.397093	11875.661133
6664.966031	1.318026	0.397093	13231.910156
6664.966921	1.023523	0.397093	14142.845703
6664.967785	0.134385	0.397093	14258.954102
6664.968845	0.085616	0.397093	14349.708008
6664.969782	0.085616	0.397093	14429.930664
6664.970647	0.085584	0.397093	14503.959961
6664.971571	0.085642	0.397093	14583.092773
6664.972623	0.085565	0.397093	14673.107422
6664.973516	0.085529	0.397093	14749.484375
6664.974383	0.085602	0.397093	14823.701172
6664.975391	0.085594	0.397093	14909.980469
6664.976358	0.085580	0.397093	14992.736328
6666.009552	1.104888	0.399683	487.255493
6666.010416	1.615807	0.399683	1883.312744
6666.011418	1.608446	0.399683	3494.975586
6666.012478	1.559897	0.399683	5148.466797
6666.013370	1.517659	0.399683	6502.218262
6666.014283	1.475885	0.399683	7849.701172
6666.015363	1.429995	0.399683	9394.095703
6666.016321	1.390924	0.399683	10726.600586
6666.017188	1.356489	0.399683	11902.676758
6666.018241	1.316126	0.399683	13288.556641
6666.019264	0.807455	0.399683	14114.583008
6666.020145	0.099115	0.399683	14201.903320
6666.021093	0.085602	0.399683	14283.053711
6666.022141	0.085642	0.399683	14372.806641
6666.023072	0.085543	0.399683	14452.447266
6666.023932	0.085518	0.399683	14525.992187
6666.024984	0.085591	0.399683	14616.034180
6666.026000	0.085554	0.399683	14702.957031
6666.026867	0.085499	0.399683	14777.084961
6666.027819	0.085624	0.399683	14858.598633
6666.028879	0.085616	0.399683	14949.352539
6667.033021	1.097252	0.409267	464.137665
6667.034017	1.620403	0.409267	2078.058838
6667.034938	1.607527	0.409267	3558.591064
6667.035815	1.566471	0.409267	4932.386230
6667.036723	1.523730	0.409267	6315.933594
6667.037689	1.480115	0.409267	7745.724609
6667.038614	1.440135	0.409267	9077.849609
6667.039495	1.403364	0.409267	10314.213867
6667.040421	1.366468	0.409267	11579.563477
6667.041364	1.329719	0.409267	12833.488281
6667.042262	1.278959	0.409267	13981.993164
6667.043302	0.187397	0.409267	14176.886719
6667.044259	0.085536	0.409267	14258.744141
6667.045183	0.085540	0.409267	14337.782227
6667.046050	0.085554	0.409267	14411.958008
6667.047015	0.085569	0.409267	14494.532227
6667.047960	0.085514	0.409267	14575.342773
6667.048823	0.085569	0.409267	14649.188477
6667.049697	0.085562	0.409267	14723.969727
6667.050662	0.085532	0.409267	14806.508789
6667.051611	0.085602	0.409267	14887.745117
6668.085771	1.174274	0.404948	593.008240
6668.086672	1.621941	0.404948	2054.376953
6668.087587	1.607900	0.404948	3525.605957
6668.088480	1.566420	0.404948	4924.418945
6668.089392	1.524174	0.404948	6314.465332
6668.090355	1.480616	0.404948	7740.298828
6668.091289	1.439813	0.404948	9085.083984
6668.092157	1.403577	0.404948	10303.388672
6668.093108	1.366099	0.404948	11602.548828
6668.094045	1.329477	0.404948	12848.269531
6668.094923	1.281134	0.404948	13973.105469
6668.096007	0.180315	0.404948	14168.566406
6668.096956	0.085536	0.404948	14249.740234
6668.097864	0.085598	0.404948	14327.462891
6668.098743	0.085624	0.404948	14402.726562
6668.099690	0.085642	0.404948	14483.830078
6668.100642	0.085551	0.404948	14565.274414
6668.101529	0.085605	0.404948	14641.206055
6668.102434	0.085594	0.404948	14718.668945
6668.103353	0.085565	0.404948	14797.303711
6668.104300	0.085565	0.404948	14878.333984
6669.108786	1.208566	0.420896	652.625488
6669.109683	1.623636	0.420896	2109.027344
6669.110564	1.607761	0.420896	3525.464844
6669.111428	1.564827	0.420896	4877.475098
6669.112502	1.517355	0.420896	6507.114258
6669.113396	1.476856	0.420896	7827.422852
6669.114277	1.439026	0.420896	9095.205078
6669.115275	1.398446	0.420896	10490.854492
6669.116211	1.360660	0.420896	11764.432617
6669.117136	1.324896	0.420896	12989.961914
6669.118006	1.168114	0.420896	14006.220703
6669.119042	0.159320	0.420896	14171.276367
6669.119921	0.085393	0.420896	14246.336914
6669.120784	0.085485	0.420896	14320.110352
6669.121749	0.085598	0.420896	14402.712891
6669.122698	0.085459	0.420896	14483.813477
6669.123611	0.085547	0.420896	14561.917969
6669.124489	0.085540	0.420896	14637.021484
6669.125538	0.085554	0.420896	14726.767578
6669.126433	0.085569	0.420896	14803.351562
6669.127355	0.085452	0.420896	14882.137695
6670.162392	1.127640	0.417847	501.799957
6670.163275	1.617250	0.417847	1929.831543
6670.164137	1.611420	0.417847	3318.875244
6670.165238	1.563179	0.417847	5039.935059
6670.166138	1.520526	0.417847	6408.408203
6670.167009	1.480686	0.417847	7698.085937
6670.167996	1.438374	0.417847	9117.760742
6670.169008	1.396132	0.417847	10530.646484
6670.169906	1.361012	0.417847	11752.834961
6670.170772	1.326244	0.417847	12901.362305
6670.171863	1.043361	0.417847	14039.668945
6670.172793	0.131008	0.417847	14161.506836
6670.173663	0.085492	0.417847	14235.884766
6670.174645	0.085558	0.417847	14319.902344
6670.175652	0.085609	0.417847	14406.110352
6670.176545	0.085547	0.417847	14482.503906
6670.177420	0.085562	0.417847	14557.370117
6670.178406	0.085565	0.417847	14641.737305
6670.179335	0.085569	0.417847	14721.230469
6670.180250	0.085573	0.417847	14799.529297
6670.181108	0.085580	0.417847	14872.957031
6671.182778	1.086628	0.427724	458.557190
6671.183645	1.613719	0.427724	1857.651855
6671.184757	1.604143	0.427724	3641.458984
6671.185729	1.558964	0.427724	5156.771484
6671.186605	1.518065	0.427724	6486.596680
6671.187714	1.468213	0.427724	8114.844727
6671.188751	1.424040	0.427724	9591.574219
6671.189645	1.387423	0.427724	10831.930664
6671.190608	1.350220	0.427724	12132.192383
6671.191676	1.308702	0.427724	13529.886719
6671.192611	0.673898	0.427724	14159.981445
6671.193470	0.092593	0.427724	14239.518555
6671.194532	0.085605	0.427724	14330.431641
6671.195535	0.085433	0.427724	14416.121094
6671.196420	0.085569	0.427724	14491.849609
6671.197411	0.085635	0.427724	14576.713867
6671.198462	0.085609	0.427724	14666.689453
6671.199364	0.085576	0.427724	14743.878906
6671.200224	0.085616	0.427724	14817.508789
6671.201309	0.085587	0.427724	14910.371094
6671.202297	0.085547	0.427724	14994.891602
6672.239034	1.088903	0.435423	460.605804
6672.240017	1.619674	0.435423	2052.745361
6672.240944	1.607684	0.435423	3543.068848
6672.241831	1.565922	0.435423	4932.041504
6672.242717	1.524265	0.435423	6282.540527
6672.243674	1.480554	0.435423	7699.430664
6672.244626	1.440051	0.435423	9070.359375
6672.245506	1.403287	0.435423	10305.251953
6672.246419	1.366501	0.435423	11552.868164
6672.247380	1.329463	0.435423	12830.482422
6672.248310	1.254038	0.435423	13996.738281
6672.249191	0.269755	0.435423	14234.392578
6672.250151	0.085558	0.435423	14316.528320
6672.251071	0.085591	0.435423	14395.271484
6672.251989	0.085525	0.435423	14473.783203
6672.252849	0.085624	0.435423	14547.419922
6672.253817	0.085529	0.435423	14630.211914
6672.254764	0.085521	0.435423	14711.200195
6672.255648	0.085521	0.435423	14786.800781
6672.256569	0.085565	0.435423	14865.606445
6672.257489	0.085580	0.435423	14944.339844
6673.257421	1.096992	0.434254	476.094574
6673.258285	1.614763	0.434254	1871.250000
6673.259225	1.610621	0.434254	3385.233887
6673.260166	1.566654	0.434254	4859.455078
6673.261091	1.524181	0.434254	6269.322266
6673.261964	1.483462	0.434254	7564.384766
6673.262945	1.441934	0.434254	8978.921875
6673.263893	1.402833	0.434254	10308.807617
6673.264792	1.366853	0.434254	11537.608398
6673.265704	1.331840	0.434254	12752.246094
6673.266666	1.268829	0.434254	13972.859375
6673.267602	0.256047	0.434254	14212.519531
6673.268462	0.085671	0.434254	14286.197266
6673.269456	0.085554	0.434254	14371.238281
6673.270371	0.085463	0.434254	14449.436523
6673.271296	0.085642	0.434254	14528.655273
6673.272171	0.085521	0.434254	14603.486328
6673.273139	0.085521	0.434254	14686.270508
6673.274060	0.085598	0.434254	14765.106445
6673.274933	0.085591	0.434254	14839.827148
6673.275888	0.085525	0.434254	14921.503906
6674.315725	1.103683	0.432526	481.205719
6674.316604	1.615946	0.432526	1901.622314
6674.317465	1.611760	0.432526	3289.347900
6674.318521	1.564541	0.432526	4941.502930
6674.319421	1.522756	0.432526	6311.983398
6674.320302	1.482682	0.432526	7618.226074
6674.321271	1.441234	0.432526	9014.782227
6674.322228	1.400988	0.432526	10355.527344
6674.323152	1.364824	0.432526	11616.625000
6674.324021	1.330488	0.432526	12772.819336
6674.325051	1.218475	0.432526	14027.848633
6674.325948	0.220752	0.432526	14225.863281
6674.326818	0.085536	0.432526	14300.279297
6674.327751	0.085594	0.432526	14380.138672
6674.328761	0.085569	0.432526	14466.563477
6674.329668	0.085584	0.432526	14544.187500
6674.330541	0.085525	0.432526	14618.850586
6674.331565	0.085635	0.432526	14706.541016
6674.332465	0.085499	0.432526	14783.490234
6674.333365	0.085591	0.432526	14860.521484
6674.334255	0.085627	0.432526	14936.729492
6675.330599	1.182957	0.421364	612.771484
6675.331641	1.624955	0.421364	2305.974365
6675.332514	1.602202	0.421364	3704.696777
6675.333456	1.557810	0.421364	5172.153809
6675.334522	1.508287	0.421364	6779.988281
6675.335465	1.466279	0.421364	8162.689453
6675.336336	1.428604	0.421364	9407.002930
6675.337385	1.385977	0.421364	10860.892578
6675.338409	1.346118	0.421364	12239.317383
6675.339304	1.311705	0.421364	13413.293945
6675.340273	0.747568	0.421364	14137.687500
6675.341333	0.089487	0.421364	14232.543945
6675.342249	0.085602	0.421364	14310.955078
6675.343109	0.085529	0.421364	14384.509766
6675.344193	0.085569	0.421364	14477.266602
6675.345187	0.085605	0.421364	14562.358398
6675.346076	0.085444	0.421364	14638.318359
6675.346940	0.085562	0.421364	14712.243164
6675.348023	0.085605	0.421364	14804.954102
6675.348925	0.085536	0.421364	14882.107422
6675.349794	0.085573	0.421364	14956.469727
6676.391881	1.096403	0.439499	478.031555
6676.392751	1.615199	0.439499	1883.254639
6676.393759	1.607366	0.439499	3503.479248
6676.394806	1.559520	0.439499	5136.296875
6676.395699	1.517322	0.439499	6491.265137
6676.396628	1.474977	0.439499	7861.518555
6676.397707	1.429453	0.439499	9403.898437
6676.398647	1.390719	0.439499	10711.173828
6676.399524	1.355999	0.439499	11900.384766
6676.400589	1.315137	0.439499	13301.005859
6676.401609	0.796293	0.439499	14113.224609
6676.402503	0.096372	0.439499	14199.380859
6676.403466	0.085562	0.439499	14281.776367
6676.404504	0.085620	0.439499	14370.650391
6676.405428	0.085587	0.439499	14449.733398
6676.406287	0.085485	0.439499	14523.165039
6676.407353	0.085605	0.439499	14614.420898
6676.408347	0.085580	0.439499	14699.487305
6676.409220	0.085543	0.439499	14774.166992
6676.410207	0.085774	0.439499	14858.826172
6676.411240	0.085616	0.439499	14947.267578
6677.405676	1.163042	0.442968	546.629761
6677.406625	1.621487	0.442968	2085.420898
6677.407550	1.606542	0.442968	3571.472168
6677.408419	1.564995	0.442968	4931.453125
6677.409390	1.520709	0.442968	6408.062012
6677.410335	1.478031	0.442968	7804.801270
6677.411231	1.439132	0.442968	9094.263672
6677.412145	1.401738	0.442968	10375.452148
6677.413094	1.364484	0.442968	11670.346680
6677.414028	1.327852	0.442968	12910.560547
6677.414897	1.265537	0.442968	14010.312500
6677.415849	0.222283	0.442968	14221.925781
6677.416806	0.085488	0.442968	14303.738281
6677.417735	0.085631	0.442968	14383.290039
6677.418610	0.085452	0.442968	14458.060547
6677.419572	0.085532	0.442968	14540.342773
6677.420494	0.085510	0.442968	14619.183594
6677.421361	0.085573	0.442968	14693.375000
6677.422314	0.085631	0.442968	14774.981445
6677.423229	0.085547	0.442968	14853.256836
6677.424148	0.085507	0.442968	14931.836914
6678.467512	1.083109	0.443398	458.155151
6678.468456	1.616580	0.443398	1984.206299
6678.469409	1.607329	0.443398	3515.990967
6678.470335	1.564662	0.443398	4964.867676
6678.471201	1.523302	0.443398	6284.047363
6678.472156	1.480151	0.443398	7697.591797
6678.473113	1.439531	0.443398	9075.223633
6678.474007	1.402181	0.443398	10328.773437
6678.474929	1.366172	0.443398	11588.383789
6678.475857	1.328723	0.443398	12821.438477
6678.476809	1.244355	0.443398	14006.064453
6678.477704	0.243029	0.443398	14223.575195
6678.478631	0.085653	0.443398	14302.975586
6678.479592	0.085514	0.443398	14385.154297
6678.480482	0.085605	0.443398	14461.342773
6678.481410	0.085580	0.443398	14540.760742
6678.482366	0.085558	0.443398	14622.553711
6678.483268	0.085525	0.443398	14699.697266
6678.484147	0.085675	0.443398	14775.005859
6678.485067	0.085551	0.443398	14853.711914
6678.486018	0.085613	0.443398	14935.129883
6679.482354	1.141864	0.449941	545.811035
6679.483230	1.618638	0.449941	1963.737671
6679.484233	1.606846	0.449941	3575.403809
6679.485155	1.562483	0.449941	5016.012695
6679.486061	1.520127	0.449941	6393.247559
6679.486943	1.478939	0.449941	7697.671875
6679.487983	1.435221	0.449941	9190.301758
6679.488888	1.398069	0.449941	10455.553711
6679.489771	1.363275	0.449941	11659.326172
6679.490735	1.326273	0.449941	12937.853516
6679.491695	1.159189	0.449941	14050.675781
6679.492623	0.169175	0.449941	14207.669922
6679.493486	0.085459	0.449941	14281.420898
6679.494518	0.085573	0.449941	14369.731445
6679.495400	0.085518	0.449941	14445.158203
6679.496268	0.085514	0.449941	14519.384766
6679.497170	0.085477	0.449941	14596.485352
6679.498171	0.085521	0.449941	14682.091797
6679.499092	0.085521	0.449941	14760.856445
6679.499986	0.085635	0.449941	14837.414062
6679.500963	0.085609	0.449941	14921.053711
6680.542651	1.083552	0.461361	460.509705
6680.543675	1.616931	0.461361	2116.247314
6680.544675	1.601993	0.461361	3718.240723
6680.545565	1.560234	0.461361	5106.849609
6680.546427	1.517948	0.461361	6415.320801
6680.547533	1.470809	0.461361	8042.036133
6680.548427	1.431383	0.461361	9321.692383
6680.549310	1.395388	0.461361	10553.820312
6680.550298	1.356826	0.461361	11894.364258
6680.551295	1.317726	0.461361	13208.136719
6680.552191	1.030803	0.461361	14131.736328
6680.553059	0.135081	0.461361	14248.986328
6680.554155	0.085507	0.461361	14342.701172
6680.555077	0.085459	0.461361	14421.494141
6680.555954	0.085646	0.461361	14496.605469
6680.556946	0.085693	0.461361	14581.613281
6680.557933	0.085499	0.461361	14666.000977
6680.558811	0.085466	0.461361	14741.040039
6680.559671	0.085551	0.461361	14814.613281
6680.560763	0.085573	0.461361	14908.058594
6680.561671	0.085459	0.461361	14985.655273
6681.560102	1.196982	0.474231	627.218750
6681.561123	1.625383	0.474231	2286.735352
6681.562020	1.601894	0.474231	3723.634766
6681.562992	1.556605	0.474231	5236.655273
6681.564052	1.507350	0.474231	6834.446289
6681.564973	1.465668	0.474231	8184.326172
6681.565839	1.427747	0.474231	9420.754883
6681.566909	1.385350	0.474231	10903.080078
6681.567905	1.345994	0.474231	12243.689453
6681.568803	1.311625	0.474231	13421.528320
6681.569823	0.687059	0.474231	14122.329102
6681.570886	0.088235	0.474231	14216.123047
6681.571767	0.085576	0.474231	14291.515625
6681.572633	0.085565	0.474231	14365.615234
6681.573729	0.085620	0.474231	14459.455078
6681.574688	0.085540	0.474231	14541.487305
6681.575547	0.085638	0.474231	14615.050781
6681.576603	0.085657	0.474231	14705.503906
6681.577646	0.085580	0.474231	14794.763672
6681.578517	0.085594	0.474231	14869.316406
6681.579417	0.085605	0.474231	14946.361328
6682.617283	1.091063	0.482046	468.066132
6682.618152	1.614503	0.482046	1871.069458
6682.619124	1.609713	0.482046	3435.710693
6682.620060	1.565497	0.482046	4901.015625
6682.620985	1.522969	0.482046	6309.761719
6682.621849	1.482550	0.482046	7590.685059
6682.622824	1.441381	0.482046	8996.031250
6682.623774	1.402379	0.482046	10328.291016
6682.624653	1.367029	0.482046	11529.909180
6682.625570	1.331133	0.482046	12750.557617
6682.626521	1.261597	0.482046	13950.335937
6682.627420	0.279734	0.482046	14201.816406
6682.628336	0.085862	0.482046	14280.465820
6682.629261	0.085620	0.482046	14359.664062
6682.630207	0.085554	0.482046	14440.598633
6682.631092	0.085620	0.482046	14516.372070
6682.632009	0.085573	0.482046	14594.841797
6682.632957	0.085499	0.482046	14675.895508
6682.633877	0.085543	0.482046	14754.595703
6682.634733	0.085518	0.482046	14827.798828
6682.635677	0.085554	0.482046	14908.561523
6683.637182	1.091796	0.485897	465.104919
6683.638147	1.619158	0.485897	2027.592041
6683.639080	1.606674	0.485897	3526.618652
6683.640005	1.564167	0.485897	4973.473633
6683.640881	1.522273	0.485897	6306.984863
6683.641855	1.478998	0.485897	7747.528809
6683.642800	1.438521	0.485897	9106.930664
6683.643676	1.401628	0.485897	10334.756836
6683.644596	1.365560	0.485897	11591.072266
6683.645554	1.328221	0.485897	12863.508789
6683.646488	1.233153	0.485897	14015.273437
6683.647372	0.242106	0.485897	14229.294922
6683.648300	0.085466	0.485897	14308.607422
6683.649257	0.085565	0.485897	14390.493164
6683.650183	0.085547	0.485897	14469.709961
6683.651044	0.085525	0.485897	14543.346680
6683.652018	0.085496	0.485897	14626.619141
6683.652961	0.085598	0.485897	14707.337891
6683.653825	0.085660	0.485897	14781.348633
6683.654712	0.085627	0.485897	14857.299805
6683.655666	0.085627	0.485897	14938.988281
6684.691948	1.111234	0.493869	521.168762
6684.692834	1.618623	0.493869	1955.268799
6684.693702	1.609424	0.493869	3352.248535
6684.694705	1.564655	0.493869	4921.597168
6684.695629	1.521709	0.493869	6327.656250
6684.696515	1.481367	0.493869	7640.147461
6684.697427	1.442325	0.493869	8955.548828
6684.698391	1.402665	0.493869	10307.717773
6684.699319	1.365527	0.493869	11574.927734
6684.700193	1.331199	0.493869	12738.395508
6684.701148	1.265006	0.493869	13946.476562
6684.702095	0.256483	0.493869	14189.366211
6684.703001	0.085558	0.493869	14266.881836
6684.703879	0.085485	0.493869	14341.937500
6684.704837	0.085474	0.493869	14423.821289
6684.705787	0.085419	0.493869	14504.968750
6684.706676	0.085444	0.493869	14580.928711
6684.707585	0.085540	0.493869	14658.684570
6684.708510	0.085444	0.493869	14737.720703
6684.709433	0.085496	0.493869	14816.632812
6684.710294	0.085562	0.493869	14890.301758
6685.713929	1.162950	0.485499	572.171570
6685.714809	1.619685	0.485499	1997.494385
6685.715688	1.609911	0.485499	3412.605957
6685.716627	1.566350	0.485499	4883.408691
6685.717606	1.520856	0.485499	6372.326660
6685.718524	1.479023	0.485499	7730.070312
6685.719412	1.440502	0.485499	9009.236328
6685.720456	1.398322	0.485499	10469.083984
6685.721359	1.361810	0.485499	11698.798828
6685.722233	1.327694	0.485499	12859.203125
6685.723108	1.212034	0.485499	13919.732422
6685.724153	0.189324	0.485499	14117.576172
6685.725039	0.085430	0.485499	14193.266602
6685.725905	0.085551	0.485499	14267.353516
6685.726881	0.085657	0.485499	14350.954102
6685.727804	0.085594	0.485499	14429.958008
6685.728714	0.085477	0.485499	14507.742187
6685.729600	0.085584	0.485499	14583.569336
6685.730622	0.085642	0.485499	14671.095703
6685.731513	0.085569	0.485499	14747.337891
6685.732385	0.085547	0.485499	14821.934570
6686.767101	1.146676	0.497773	559.577881
6686.767981	1.619019	0.497773	1984.314209
6686.768849	1.610614	0.497773	3382.327148
6686.769878	1.562941	0.497773	4990.592773
6686.770847	1.517867	0.497773	6461.406250
6686.771727	1.477874	0.497773	7761.935059
6686.772611	1.438619	0.497773	9033.674805
6686.773707	1.395385	0.497773	10563.016602
6686.774594	1.359822	0.497773	11769.178711
6686.775459	1.326017	0.497773	12916.183594
6686.776496	1.070900	0.497773	14026.707031
6686.777467	0.132880	0.497773	14155.733398
6686.778336	0.085496	0.497773	14230.029297
6686.779190	0.085613	0.497773	14303.142578
6686.780276	0.085591	0.497773	14396.093750
6686.781178	0.085594	0.497773	14473.299805
6686.782052	0.085584	0.497773	14548.099609
6686.783040	0.085646	0.497773	14632.717773
6686.784035	0.085573	0.497773	14717.862305
6686.784920	0.085605	0.497773	14793.623047
6686.785778	0.085518	0.497773	14866.997070
6687.790093	1.163837	0.498248	586.573730
6687.790998	1.621461	0.498248	2053.996094
6687.791867	1.607516	0.498248	3450.927246
6687.792956	1.558147	0.498248	5147.749023
6687.793949	1.511550	0.498248	6648.718750
6687.794842	1.471930	0.498248	7963.152344
6687.795837	1.429779	0.498248	9385.782227
6687.796894	1.386628	0.498248	10851.448242
6687.797796	1.350879	0.498248	12069.941406
6687.798668	1.315646	0.498248	13217.184570
6687.799778	0.757932	0.498248	14058.489258
6687.800737	0.091604	0.498248	14146.337891
6687.801601	0.085540	0.498248	14220.244141
6687.802688	0.085657	0.498248	14313.352539
6687.803695	0.085587	0.498248	14399.539062
6687.804574	0.085510	0.498248	14474.702148
6687.805502	0.085671	0.498248	14554.205078
6687.806552	0.085540	0.498248	14644.021484
6687.807486	0.085514	0.498248	14723.891602
6687.808346	0.085529	0.498248	14797.446289
6687.809379	0.085660	0.498248	14885.933594
6688.842270	1.166781	0.502051	610.226440
6688.843332	1.624347	0.502051	2335.282715
6688.844247	1.598946	0.502051	3798.318848
6688.845116	1.556374	0.502051	5150.808105
6688.846206	1.507310	0.502051	6793.775391
6688.847196	1.462903	0.502051	8242.048828
6688.848094	1.425359	0.502051	9522.021484
6688.849095	1.384475	0.502051	10907.880859
6688.850165	1.343415	0.502051	12345.335937
6688.851059	1.308193	0.502051	13514.860352
6688.851969	0.715096	0.502051	14165.597656
6688.853040	0.088348	0.502051	14260.218750
6688.853998	0.085580	0.502051	14342.204102
6688.854864	0.085584	0.502051	14416.319336
6688.855898	0.085642	0.502051	14504.873047
6688.856929	0.085627	0.502051	14593.155273
6688.857823	0.085653	0.502051	14669.729492
6688.858751	0.085594	0.502051	14749.161133
6688.859807	0.085635	0.502051	14839.591797
6688.860743	0.085547	0.502051	14919.664062
6688.861602	0.085551	0.502051	14993.152344
6689.865683	1.110007	0.497410	488.403198
6689.866557	1.615660	0.497410	1900.490356
6689.867450	1.611555	0.497410	3339.609131
6689.868392	1.567994	0.497410	4816.659668
6689.869325	1.524086	0.497410	6238.631836
6689.870221	1.483524	0.497410	7567.869629
6689.871142	1.443699	0.497410	8897.516602
6689.872097	1.404349	0.497410	10238.669922
6689.873026	1.367223	0.497410	11508.820312
6689.873910	1.332502	0.497410	12686.752930
6689.874890	1.278746	0.497410	13939.923828
6689.875831	0.268363	0.497410	14192.453125
6689.876735	0.085624	0.497410	14269.857422
6689.877599	0.085532	0.497410	14343.756836
6689.878569	0.085565	0.497410	14426.754883
6689.879521	0.085540	0.497410	14508.188477
6689.880392	0.085554	0.497410	14582.706055
6689.881301	0.085558	0.497410	14660.478516
6689.882254	0.085573	0.497410	14742.029297
6689.883183	0.085584	0.497410	14821.536133
6689.884052	0.085565	0.497410	14895.892578
6690.917875	1.128146	0.511606	526.844116
6690.918770	1.617645	0.511606	1974.636597
6690.919644	1.610497	0.511606	3382.210937
6690.920550	1.568591	0.511606	4803.354492
6690.921503	1.523983	0.511606	6255.710449
6690.922431	1.481528	0.511606	7630.568848
6690.923318	1.443223	0.511606	8910.707031
6690.924248	1.403778	0.511606	10216.220703
6690.925219	1.365688	0.511606	11542.304687
6690.926154	1.329606	0.511606	12785.486328
6690.927025	1.271093	0.511606	13892.607422
6690.928013	0.271007	0.511606	14160.362305
6690.928954	0.085507	0.511606	14240.824219
6690.929843	0.085554	0.511606	14316.881836
6690.930772	0.085594	0.511606	14396.399414
6690.931711	0.085605	0.511606	14476.783203
6690.932619	0.085558	0.511606	14554.469727
6690.933506	0.085580	0.511606	14630.378906
6690.934412	0.085554	0.511606	14707.890625
6690.935374	0.085693	0.511606	14790.328125
6690.936295	0.085616	0.511606	14869.180664
6691.941832	1.093356	0.528948	474.516418
6691.942694	1.614046	0.528948	1865.823730
6691.943678	1.608095	0.528948	3448.188965
6691.944606	1.565387	0.528948	4900.868164
6691.945493	1.524111	0.528948	6252.754883
6691.946359	1.482971	0.528948	7537.007812
6691.947361	1.441022	0.528948	8980.911133
6691.948312	1.401918	0.528948	10314.134766
6691.949208	1.366234	0.528948	11538.280273
6691.950121	1.330811	0.528948	12753.310547
6691.951089	1.256484	0.528948	13969.587891
6691.952017	0.255941	0.528948	14207.101562
6691.952884	0.085668	0.528948	14281.375000
6691.953825	0.085598	0.528948	14361.922852
6691.954740	0.085547	0.528948	14440.198242
6691.955666	0.085551	0.528948	14519.417969
6691.956544	0.085591	0.528948	14594.566406
6691.957501	0.085638	0.528948	14676.522461
6691.958439	0.085503	0.528948	14756.724609
6691.959329	0.085558	0.528948	14832.871094
6691.960243	0.085602	0.528948	14911.111328
6692.993493	1.125304	0.524291	495.133759
6692.994385	1.617067	0.524291	1937.557251
6692.995261	1.611420	0.524291	3349.160889
6692.996279	1.565306	0.524291	4942.642578
6692.997203	1.520771	0.524291	6347.835449
6692.998137	1.479002	0.524291	7729.222656
6692.999002	1.440139	0.524291	8974.943359
6693.000039	1.398754	0.524291	10425.451172
6693.000916	1.363228	0.524291	11621.001953
6693.001833	1.327808	0.524291	12838.601562
6693.002717	1.230787	0.524291	13926.617187
6693.003706	0.229633	0.524291	14153.723633
6693.004625	0.085466	0.524291	14232.267578
6693.005503	0.085624	0.524291	14307.445312
6693.006509	0.085605	0.524291	14393.564453
6693.007404	0.085532	0.524291	14470.116211
6693.008317	0.085584	0.524291	14548.253906
6693.009182	0.085690	0.524291	14622.375000
6693.010153	0.085532	0.524291	14705.426758
6693.011067	0.085525	0.524291	14783.596680
6693.011969	0.085613	0.524291	14860.819336
6694.017466	1.087269	0.523683	462.089417
6694.018336	1.613610	0.523683	1865.929687
6694.019333	1.608556	0.523683	3469.659912
6694.020283	1.564156	0.523683	4955.608398
6694.021203	1.521449	0.523683	6355.341309
6694.022070	1.481118	0.523683	7639.470703
6694.023115	1.437268	0.523683	9141.416016
6694.023997	1.399797	0.523683	10376.037109
6694.024879	1.365044	0.523683	11580.005859
6694.025828	1.328152	0.523683	12840.421875
6694.026807	1.207881	0.523683	14022.937500
6694.027726	0.203679	0.523683	14210.119141
6694.028603	0.085543	0.523683	14285.140625
6694.029628	0.085620	0.523683	14372.901367
6694.030527	0.085518	0.523683	14449.781250
6694.031400	0.085598	0.523683	14524.508789
6694.032267	0.085616	0.523683	14598.738281
6694.033315	0.085488	0.523683	14688.330078
6694.034202	0.085551	0.523683	14764.213867
6694.035066	0.085635	0.523683	14838.202148
6694.036045	0.085638	0.523683	14922.041992
6695.069194	1.161390	0.538362	581.856567
6695.070138	1.622531	0.538362	2113.525391
6695.071005	1.606450	0.538362	3506.317871
6695.072066	1.557469	0.538362	5158.792969
6695.073083	1.510411	0.538362	6694.881348
6695.073974	1.470300	0.538362	8004.918945
6695.074840	1.432716	0.538362	9245.651367
6695.075913	1.389181	0.538362	10736.242187
6695.076860	1.352131	0.538362	12016.710937
6695.077727	1.318169	0.538362	13159.563477
6695.078791	0.855406	0.538362	14069.715820
6695.079800	0.094427	0.538362	14164.993164
6695.080683	0.085518	0.538362	14240.504883
6695.081538	0.085635	0.538362	14313.722656
6695.082606	0.085686	0.538362	14405.235352
6695.083536	0.085587	0.538362	14484.831055
6695.084407	0.085565	0.538362	14559.358398
6695.085377	0.085631	0.538362	14642.420898
6695.086388	0.085584	0.538362	14728.946289
6695.087281	0.085510	0.538362	14805.306641
6695.088144	0.085613	0.538362	14879.190430
6696.093636	1.094235	0.544018	467.238159
6696.094497	1.613199	0.544018	1856.202881
6696.095607	1.603590	0.544018	3636.187744
6696.096561	1.558795	0.544018	5123.278320
6696.097425	1.518450	0.544018	6435.218750
6696.098490	1.470831	0.544018	8001.654297
6696.099528	1.426875	0.544018	9482.750000
6696.100407	1.390177	0.544018	10704.715820
6696.101323	1.353787	0.544018	11944.784180
6696.102381	1.313093	0.544018	13334.037109
6696.103335	0.837235	0.544018	14132.759766
6696.104203	0.102074	0.544018	14221.360352
6696.105239	0.085631	0.544018	14310.074219
6696.106260	0.085591	0.544018	14397.462891
6696.107146	0.085605	0.544018	14473.309570
6696.108105	0.085562	0.544018	14555.363281
6696.109151	0.085671	0.544018	14644.975586
6696.110085	0.085573	0.544018	14724.900391
6696.110948	0.085660	0.544018	14798.825195
6696.112006	0.085671	0.544018	14889.465820
6696.113011	0.085543	0.544018	14975.436523
6697.144793	1.128270	0.553879	499.823730
6697.145716	1.618297	0.553879	1993.511963
6697.146579	1.609182	0.553879	3382.236084
6697.147543	1.564962	0.553879	4890.859375
6697.148492	1.521127	0.553879	6334.408691
6697.149386	1.480536	0.553879	7658.007812
6697.150298	1.441293	0.553879	8972.466797
6697.151250	1.402266	0.553879	10307.423828
6697.152181	1.365172	0.553879	11578.399414
6697.153069	1.330302	0.553879	12759.707031
6697.154016	1.262523	0.553879	13955.316406
6697.154960	0.246698	0.553879	14188.199219
6697.155888	0.085594	0.553879	14267.630859
6697.156750	0.085525	0.553879	14341.353516
6697.157722	0.085518	0.553879	14424.476562
6697.158676	0.085518	0.553879	14506.060547
6697.159545	0.085554	0.553879	14580.407227
6697.160454	0.085554	0.553879	14658.175781
6697.161403	0.085591	0.553879	14739.401367
6697.162331	0.085521	0.553879	14818.764648
6697.163205	0.085481	0.553879	14893.474609
6698.168774	1.100585	0.557900	477.653778
6698.169638	1.614133	0.557900	1872.265015
6698.170612	1.608699	0.557900	3439.137695
6698.171535	1.565332	0.557900	4883.938965
6698.172433	1.523844	0.557900	6252.350586
6698.173354	1.481902	0.557900	7617.182129
6698.174320	1.440674	0.557900	9008.873047
6698.175248	1.401888	0.557900	10309.825195
6698.176129	1.366600	0.557900	11513.799805
6698.177107	1.329426	0.557900	12813.978516
6698.178025	1.249819	0.557900	13961.312500
6698.178960	0.245574	0.557900	14190.923828
6698.179819	0.085646	0.557900	14264.493164
6698.180797	0.085536	0.557900	14348.147461
6698.181746	0.085518	0.557900	14429.303711
6698.182617	0.085584	0.557900	14503.846680
6698.183530	0.085499	0.557900	14581.907227
6698.184482	0.085463	0.557900	14663.267578
6698.185404	0.085470	0.557900	14742.071289
6698.186277	0.085485	0.557900	14816.699219
6698.187222	0.085386	0.557900	14897.388672
6699.220445	1.120371	0.553138	513.129944
6699.221341	1.617455	0.553138	1962.369629
6699.222222	1.610153	0.553138	3380.914062
6699.223132	1.568635	0.553138	4808.372070
6699.224102	1.523525	0.553138	6286.191406
6699.225035	1.480734	0.553138	7667.715820
6699.225903	1.442739	0.553138	8920.013672
6699.226855	1.403544	0.553138	10256.187500
6699.227790	1.365754	0.553138	11533.167969
6699.228709	1.330023	0.553138	12755.458984
6699.229593	1.273433	0.553138	13881.173828
6699.230574	0.275178	0.553138	14151.124023
6699.231520	0.085605	0.553138	14232.106445
6699.232411	0.085529	0.553138	14308.312500
6699.233318	0.085503	0.553138	14385.863281
6699.234268	0.085576	0.553138	14467.160156
6699.235194	0.085448	0.553138	14546.285156
6699.236057	0.085605	0.553138	14620.163086
6699.237005	0.085569	0.553138	14701.282227
6699.237955	0.085540	0.553138	14782.544922
6699.238872	0.085569	0.553138	14861.011719
6700.245429	1.102306	0.572716	462.968475
6700.246407	1.619762	0.572716	2047.095703
6700.247336	1.606278	0.572716	3539.328125
6700.248219	1.565043	0.572716	4921.260742
6700.249158	1.522097	0.572716	6350.509766
6700.250112	1.478544	0.572716	7761.040527
6700.251043	1.438253	0.572716	9100.054687
6700.251909	1.401984	0.572716	10314.172852
6700.252874	1.363868	0.572716	11630.305664
6700.253818	1.326661	0.572716	12882.673828
6700.254727	1.237833	0.572716	14007.864258
6700.255611	0.248745	0.572716	14227.754883
6700.256577	0.085536	0.572716	14310.382812
6700.257504	0.085605	0.572716	14389.739258
6700.258385	0.085562	0.572716	14465.119141
6700.259377	0.085503	0.572716	14549.938477
6700.260312	0.085591	0.572716	14629.965820
6700.261236	0.085660	0.572716	14709.116211
6700.262096	0.085499	0.572716	14782.645508
6700.263059	0.085551	0.572716	14865.030273
6700.264011	0.085543	0.572716	14946.467773
6701.297590	1.079392	0.590376	455.503448
6701.298564	1.614166	0.590376	2027.701416
6701.299520	1.605150	0.590376	3562.225098
6701.300441	1.562336	0.590376	5001.136719
6701.301311	1.521229	0.590376	6324.605957
6701.302347	1.475186	0.590376	7852.898437
6701.303231	1.436884	0.590376	9123.103516
6701.304105	1.400566	0.590376	10347.198242
6701.305055	1.362946	0.590376	11641.996094
6701.306066	1.324259	0.590376	12980.822266
6701.306965	1.175702	0.590376	14037.778320
6701.307853	0.197032	0.590376	14212.743164
6701.308864	0.085576	0.590376	14299.260742
6701.309774	0.085547	0.590376	14377.108398
6701.310644	0.085514	0.590376	14451.505859
6701.311501	0.085554	0.590376	14524.826172
6701.312549	0.085521	0.590376	14614.452148
6701.313443	0.085532	0.590376	14690.917969
6701.314320	0.085547	0.590376	14765.942383
6701.315303	0.085598	0.590376	14850.084961
6701.316237	0.085551	0.590376	14929.989258
6702.321139	1.118445	0.582726	537.971924
6702.322190	1.622915	0.582726	2243.655762
6702.323080	1.602517	0.582726	3669.895996
6702.323942	1.561271	0.582726	5015.711426
6702.324966	1.513283	0.582726	6565.312500
6702.325938	1.470070	0.582726	7994.220215
6702.326814	1.432668	0.582726	9249.238281
6702.327692	1.395311	0.582726	10474.321289
6702.328793	1.353732	0.582726	11964.780273
6702.329697	1.318337	0.582726	13156.557617
6702.330566	1.094436	0.582726	14107.623047
6702.331609	0.121187	0.582726	14234.020508
6702.332581	0.085459	0.582726	14317.086914
6702.333501	0.085543	0.582726	14395.787109
6702.334362	0.085605	0.582726	14469.493164
6702.335440	0.085616	0.582726	14561.788086
6702.336336	0.085485	0.582726	14638.381836
6702.337196	0.085591	0.582726	14711.990234
6702.338273	0.085598	0.582726	14804.179687
6702.339237	0.085525	0.582726	14886.625977
6702.340105	0.085536	0.582726	14960.871094
6703.372266	1.146310	0.587161	534.180420
6703.373152	1.617708	0.587161	1967.469360
6703.374020	1.609424	0.587161	3364.449219
6703.375096	1.560776	0.587161	5043.844727
6703.376043	1.516549	0.587161	6480.016602
6703.376925	1.476610	0.587161	7782.386719
6703.377884	1.436199	0.587161	9159.701172
6703.378903	1.393663	0.587161	10579.843750
6703.379792	1.358536	0.587161	11787.582031
6703.380660	1.324131	0.587161	12936.927734
6703.381733	1.029283	0.587161	14041.348633
6703.382662	0.129653	0.587161	14161.796875
6703.383530	0.085496	0.587161	14236.006836
6703.384494	0.085646	0.587161	14318.569336
6703.385536	0.085576	0.587161	14407.739258
6703.386418	0.085638	0.587161	14483.272461
6703.387285	0.085616	0.587161	14557.501953
6703.388319	0.085686	0.587161	14646.101562
6703.389268	0.085521	0.587161	14727.260742
6703.390140	0.085602	0.587161	14801.905273
6703.391069	0.085532	0.587161	14881.364258
6704.395279	1.155970	0.588120	586.077026
6704.396155	1.619663	0.588120	2004.901978
6704.397035	1.606747	0.588120	3418.839111
6704.398148	1.556836	0.588120	5151.597656
6704.399105	1.512675	0.588120	6599.227051
6704.399977	1.473171	0.588120	7883.832520
6704.401001	1.429574	0.588120	9347.715820
6704.402040	1.387258	0.588120	10789.077148
6704.402933	1.352164	0.588120	11996.559570
6704.403869	1.316005	0.588120	13228.339844
6704.404949	0.773558	0.588120	14063.783203
6704.405884	0.092930	0.588120	14150.672852
6704.406746	0.085594	0.588120	14224.455078
6704.407806	0.085638	0.588120	14315.231445
6704.408813	0.085565	0.588120	14401.395508
6704.409692	0.085584	0.588120	14476.623047
6704.410655	0.085576	0.588120	14559.033203
6704.411702	0.085573	0.588120	14648.627930
6704.412623	0.085507	0.588120	14727.379883
6704.413479	0.085598	0.588120	14800.652344
6704.414533	0.085649	0.588120	14890.926758
6705.449400	1.081157	0.595359	454.086090
6705.450285	1.612203	0.595359	1880.885986
6705.451371	1.602832	0.595359	3621.561523
6705.452333	1.558275	0.595359	5120.622070
6705.453207	1.517366	0.595359	6446.799805
6705.454224	1.471505	0.595359	7943.320312
6705.455267	1.427446	0.595359	9432.146484
6705.456161	1.390375	0.595359	10675.141602
6705.457091	1.353856	0.595359	11934.227539
6705.458163	1.312427	0.595359	13341.149414
6705.459121	0.825106	0.595359	14131.601562
6705.459985	0.101202	0.595359	14219.040039
6705.461037	0.085620	0.595359	14309.112305
6705.462034	0.085609	0.595359	14394.464844
6705.462920	0.085587	0.595359	14470.294922
6705.463893	0.085653	0.595359	14553.635742
6705.464934	0.085657	0.595359	14642.804687
6705.465848	0.085594	0.595359	14721.038086
6705.466706	0.085569	0.595359	14794.456055
6705.467759	0.085704	0.595359	14884.703125
6705.468773	0.085565	0.595359	14971.465820
6706.470397	1.147482	0.610940	549.643738
6706.471322	1.620212	0.610940	2048.340088
6706.472214	1.607139	0.610940	3481.907715
6706.473136	1.564519	0.610940	4924.394531
6706.474099	1.520123	0.610940	6388.273437
6706.475013	1.477639	0.610940	7738.835449
6706.475905	1.439593	0.610940	9022.953125
6706.476927	1.398025	0.610940	10451.734375
6706.477970	1.356171	0.610940	11866.220703
6706.478922	1.319429	0.610940	13122.316406
6706.479788	1.121668	0.610940	14093.680664
6706.480837	0.130924	0.610940	14231.019531
6706.481864	0.085569	0.610940	14318.898437
6706.482746	0.085536	0.610940	14394.340820
6706.483685	0.085624	0.610940	14474.741211
6706.484734	0.085627	0.610940	14564.564453
6706.485677	0.085551	0.610940	14645.238281
6706.486536	0.085576	0.610940	14718.748047
6706.487585	0.085697	0.610940	14808.644531
6706.488602	0.085521	0.610940	14895.619141
6706.489484	0.085594	0.610940	14971.113281
6707.525562	1.083589	0.602856	457.274475
6707.526488	1.613782	0.602856	1951.636475
6707.527428	1.607618	0.602856	3462.797852
6707.528355	1.564644	0.602856	4913.222656
6707.529223	1.523635	0.602856	6235.738281
6707.530196	1.480521	0.602856	7676.285156
6707.531154	1.439462	0.602856	9055.289062
6707.532041	1.402064	0.602856	10298.919922
6707.532913	1.366827	0.602856	11490.792969
6707.533854	1.329456	0.602856	12741.810547
6707.534819	1.257330	0.602856	13955.134766
6707.535711	0.275720	0.602856	14201.077148
6707.536695	0.085913	0.602856	14285.615234
6707.537755	0.085675	0.602856	14376.430664
6707.538724	0.085562	0.602856	14459.339844
6707.539590	0.085653	0.602856	14533.515625
6707.540643	0.085679	0.602856	14623.735352
6707.541687	0.085518	0.602856	14713.015625
6707.542579	0.085521	0.602856	14789.300781
6707.543495	0.085569	0.602856	14867.681641
6707.544561	0.085675	0.602856	14959.011719
6708.545472	1.089782	0.627565	466.426483
6708.546410	1.617268	0.627565	1983.423950
6708.547366	1.606260	0.627565	3519.008301
6708.548262	1.564354	0.627565	4920.669922
6708.549191	1.521035	0.627565	6333.711426
6708.550149	1.477947	0.627565	7749.584473
6708.551070	1.438370	0.627565	9074.323242
6708.551937	1.401940	0.627565	10289.804687
6708.552909	1.364312	0.627565	11615.916016
6708.553821	1.327189	0.627565	12826.312500
6708.554751	1.248212	0.627565	13987.149414
6708.555632	0.260804	0.627565	14216.917969
6708.556602	0.085536	0.627565	14299.887695
6708.557540	0.085565	0.627565	14380.147461
6708.558429	0.085580	0.627565	14456.227539
6708.559331	0.085562	0.627565	14533.404297
6708.560264	0.085525	0.627565	14613.199219
6708.561190	0.085580	0.627565	14692.446289
6708.562065	0.085627	0.627565	14767.370117
6708.562985	0.085536	0.627565	14846.063477
6708.563923	0.085609	0.627565	14926.365234
6709.602794	1.119159	0.628371	524.885498
6709.603720	1.619297	0.628371	2024.354370
6709.604598	1.608347	0.628371	3436.483154
6709.605512	1.566859	0.628371	4868.592285
6709.606437	1.522119	0.628371	6276.552734
6709.607387	1.479664	0.628371	7682.233887
6709.608262	1.441871	0.628371	8943.871094
6709.609171	1.403229	0.628371	10219.406250
6709.610134	1.365264	0.628371	11534.155273
6709.611062	1.329408	0.628371	12767.845703
6709.611945	1.266980	0.628371	13886.588867
6709.612921	0.279529	0.628371	14159.409180
6709.613878	0.085587	0.628371	14241.316406
6709.614765	0.085598	0.628371	14317.242187
6709.615646	0.085587	0.628371	14392.644531
6709.616589	0.085620	0.628371	14473.384766
6709.617539	0.085529	0.628371	14554.636719
6709.618415	0.085613	0.628371	14629.633789
6709.619349	0.085562	0.628371	14709.547852
6709.620278	0.085602	0.628371	14789.072266
6709.621191	0.085605	0.628371	14867.230469
6710.620606	1.086757	0.637278	464.045074
6710.621469	1.612617	0.637278	1855.733765
6710.622448	1.608940	0.637278	3430.886475
6710.623400	1.565171	0.637278	4920.929199
6710.624289	1.522874	0.637278	6274.763672
6710.625181	1.482056	0.637278	7596.757324
6710.626112	1.440912	0.637278	8938.246094
6710.627054	1.402456	0.637278	10259.359375
6710.627947	1.367025	0.637278	11480.113281
6710.628869	1.331041	0.637278	12707.333008
6710.629840	1.274626	0.637278	13944.995117
6710.630742	0.304058	0.637278	14219.254883
6710.631654	0.086005	0.637278	14297.691406
6710.632602	0.085584	0.637278	14378.824219
6710.633520	0.085598	0.637278	14457.403320
6710.634397	0.085573	0.637278	14532.450195
6710.635321	0.085551	0.637278	14611.499023
6710.636270	0.085518	0.637278	14692.655273
6710.637170	0.085540	0.637278	14769.640625
6710.638044	0.085605	0.637278	14844.459961
6710.638986	0.085679	0.637278	14925.168945
6711.679474	1.134737	0.651502	534.461365
6711.680362	1.617645	0.651502	1970.930420
6711.681222	1.609871	0.651502	3355.419189
6711.682178	1.566032	0.651502	4852.545410
6711.683153	1.521178	0.651502	6335.693848
6711.684049	1.479836	0.651502	7661.626953
6711.684943	1.441219	0.651502	8950.077148
6711.685893	1.401229	0.651502	10281.245117
6711.686853	1.363715	0.651502	11590.411133
6711.687742	1.329115	0.651502	12771.994141
6711.688667	1.253101	0.651502	13931.112305
6711.689633	0.251847	0.651502	14174.396484
6711.690561	0.085540	0.651502	14253.777344
6711.691426	0.085668	0.651502	14327.879883
6711.692356	0.085602	0.651502	14407.489258
6711.693287	0.085554	0.651502	14487.140625
6711.694214	0.085558	0.651502	14566.453125
6711.695075	0.085635	0.651502	14640.184570
6711.696045	0.085510	0.651502	14723.129883
6711.696993	0.085660	0.651502	14804.335937
6711.697883	0.085704	0.651502	14880.613281
6712.696259	1.095048	0.639505	465.395233
6712.697133	1.613767	0.639505	1875.827637
6712.698104	1.607629	0.639505	3436.835937
6712.699016	1.564856	0.639505	4863.984375
6712.699934	1.522614	0.639505	6261.743652
6712.700800	1.482144	0.639505	7545.279785
6712.701793	1.440549	0.639505	8975.745117
6712.702725	1.401991	0.639505	10282.400391
6712.703604	1.366945	0.639505	11483.944336
6712.704519	1.332001	0.639505	12702.724609
6712.705472	1.280123	0.639505	13922.681641
6712.706413	0.280562	0.639505	14186.690430
6712.707281	0.085697	0.639505	14261.075195
6712.708191	0.085547	0.639505	14338.922852
6712.709139	0.085540	0.639505	14420.014648
6712.710057	0.085463	0.639505	14498.469727
6712.710938	0.085558	0.639505	14573.846680
6712.711899	0.085584	0.639505	14656.092773
6712.712825	0.085529	0.639505	14735.291992
6712.713736	0.085496	0.639505	14813.178711
6712.714595	0.085452	0.639505	14886.582031
6713.755084	1.108656	0.655820	487.808655
6713.755965	1.614796	0.655820	1910.444092
6713.756836	1.611482	0.655820	3314.044922
6713.757822	1.567375	0.655820	4859.477051
6713.758750	1.523199	0.655820	6273.005859
6713.759630	1.482748	0.655820	7577.824219
6713.760533	1.442549	0.655820	8880.445312
6713.761521	1.402112	0.655820	10265.731445
6713.762453	1.365297	0.655820	11538.187500
6713.763344	1.330422	0.655820	12723.593750
6713.764271	1.281526	0.655820	13911.568359
6713.765219	0.282667	0.655820	14179.537109
6713.766133	0.085686	0.655820	14257.854492
6713.766999	0.085616	0.655820	14331.998047
6713.768030	0.085569	0.655820	14420.219727
6713.768912	0.085540	0.655820	14495.666016
6713.769822	0.085620	0.655820	14573.580078
6713.770681	0.085543	0.655820	14647.061523
6713.771637	0.085540	0.655820	14728.836914
6713.772567	0.085569	0.655820	14808.416016
6713.773448	0.085562	0.655820	14883.795898
6714.772418	1.097531	0.665162	471.938171
6714.773285	1.613141	0.665162	1870.531250
6714.774335	1.604901	0.665162	3555.677246
6714.775236	1.562772	0.665162	4963.735352
6714.776113	1.521859	0.665162	6298.405762
6714.777054	1.479210	0.665162	7690.342773
6714.778044	1.436847	0.665162	9112.821289
6714.778963	1.398179	0.665162	10397.748047
6714.779851	1.363506	0.665162	11608.541016
6714.780878	1.324911	0.665162	12969.224609
6714.781773	1.194543	0.665162	14038.340820
6714.782679	0.200021	0.665162	14219.559570
6714.783537	0.085554	0.665162	14292.964844
6714.784589	0.085551	0.665162	14382.963867
6714.785467	0.085554	0.665162	14458.080078
6714.786346	0.085605	0.665162	14533.327148
6714.787318	0.085635	0.665162	14616.564453
6714.788250	0.085569	0.665162	14696.314453
6714.789167	0.085602	0.665162	14774.811523
6714.790036	0.085602	0.665162	14849.199219
6714.791071	0.085562	0.665162	14937.755859
6715.830345	1.218501	0.681698	661.646057
6715.831296	1.623395	0.681698	2205.494629
6715.832176	1.603572	0.681698	3616.637695
6715.833082	1.560568	0.681698	5030.511719
6715.834166	1.511576	0.681698	6669.060059
6715.835052	1.470937	0.681698	7972.310547
6715.835922	1.433829	0.681698	9219.742187
6715.836970	1.390891	0.681698	10677.396484
6715.837941	1.352684	0.681698	11990.852539
6715.838814	1.318792	0.681698	13142.157227
6715.839703	1.013683	0.681698	14043.321289
6715.840804	0.111335	0.681698	14165.901367
6715.841686	0.085514	0.681698	14241.324219
6715.842556	0.085627	0.681698	14315.820312
6715.843431	0.085613	0.681698	14390.731445
6715.844473	0.085496	0.681698	14479.817383
6715.845358	0.085529	0.681698	14555.509766
6715.846234	0.085569	0.681698	14630.467773
6715.847236	0.085554	0.681698	14716.193359
6715.848162	0.085536	0.681698	14795.399414
6715.849037	0.085587	0.681698	14870.288086
6716.850214	1.198575	0.693618	640.039246
6716.851186	1.623838	0.693618	2218.409668
6716.852062	1.603455	0.693618	3623.035889
6716.852949	1.560425	0.693618	5007.132812
6716.854046	1.511598	0.693618	6665.355469
6716.854927	1.471300	0.693618	7961.570801
6716.855802	1.433804	0.693618	9216.149414
6716.856689	1.396014	0.693618	10454.414062
6716.857720	1.356255	0.693618	11852.712891
6716.858610	1.321703	0.693618	13029.028320
6716.859490	1.183689	0.693618	14070.674805
6716.860501	0.167845	0.693618	14240.366211
6716.861427	0.085525	0.693618	14319.562500
6716.862342	0.085573	0.693618	14397.861328
6716.863204	0.085594	0.693618	14471.643555
6716.864244	0.085536	0.693618	14560.600586
6716.865135	0.085496	0.693618	14636.777344
6716.866011	0.085580	0.693618	14711.745117
6716.866999	0.085631	0.693618	14796.348633
6716.867949	0.085668	0.693618	14877.733398
6716.868868	0.085569	0.693618	14956.371094
6717.904837	1.095886	0.686955	470.135193
6717.905709	1.613405	0.686955	1877.023926
6717.906571	1.609823	0.686955	3264.691406
6717.907634	1.563358	0.686955	4926.541016
6717.908537	1.521237	0.686955	6300.217773
6717.909424	1.481107	0.686955	7613.959961
6717.910424	1.438806	0.686955	9052.765625
6717.911366	1.398633	0.686955	10370.277344
6717.912298	1.362458	0.686955	11640.088867
6717.913167	1.327676	0.686955	12793.838867
6717.914197	1.194163	0.686955	14023.826172
6717.915088	0.206276	0.686955	14207.618164
6717.915953	0.085525	0.686955	14281.597656
6717.916925	0.085638	0.686955	14364.837891
6717.917856	0.085540	0.686955	14444.475586
6717.918763	0.085616	0.686955	14522.129883
6717.919638	0.085594	0.686955	14597.025391
6717.920671	0.085525	0.686955	14685.373047
6717.921560	0.085587	0.686955	14761.459961
6717.922475	0.085624	0.686955	14839.805664
6717.923338	0.085613	0.686955	14913.689453
6718.926267	1.090543	0.696156	461.299744
6718.927314	1.621271	0.696156	2158.770264
6718.928193	1.604484	0.696156	3569.111328
6718.929067	1.563838	0.696156	4935.905762
6718.930032	1.519211	0.696156	6401.944824
6718.931013	1.474735	0.696156	7848.660156
6718.931917	1.435576	0.696156	9146.420898
6718.932801	1.398955	0.696156	10383.097656
6718.933823	1.359137	0.696156	11772.135742
6718.934727	1.323746	0.696156	12968.802734
6718.935607	1.221259	0.696156	14043.509766
6718.936491	0.229146	0.696156	14246.074219
6718.937535	0.085470	0.696156	14335.304687
6718.938422	0.085510	0.696156	14411.152344
6718.939297	0.085554	0.696156	14486.012695
6718.940298	0.085558	0.696156	14571.656250
6718.941213	0.085562	0.696156	14649.945312
6718.942137	0.085510	0.696156	14728.957031
6718.942999	0.085518	0.696156	14802.672852
6718.944033	0.085558	0.696156	14891.139648
6718.944922	0.085536	0.696156	14967.180664
6719.980057	1.178287	0.701380	598.570007
6719.980990	1.621641	0.701380	2111.560547
6719.981865	1.605820	0.701380	3516.653320
6719.982813	1.561893	0.701380	4997.328125
6719.983854	1.513601	0.701380	6572.986816
6719.984751	1.472886	0.701380	7894.165039
6719.985631	1.435133	0.701380	9157.082031
6719.986580	1.396249	0.701380	10482.122070
6719.987575	1.356991	0.701380	11832.328125
6719.988457	1.322461	0.701380	12998.738281
6719.989364	1.107188	0.701380	14002.957031
6719.990440	0.134055	0.701380	14147.200195
6719.991323	0.085569	0.701380	14222.757812
6719.992186	0.085562	0.701380	14296.597656
6719.993082	0.085624	0.701380	14373.316406
6719.994114	0.085605	0.701380	14461.661133
6719.995007	0.085631	0.701380	14538.129883
6719.995884	0.085620	0.701380	14613.218750
6719.996870	0.085627	0.701380	14697.647461
6719.997795	0.085525	0.701380	14776.757812
6719.998716	0.085609	0.701380	14855.603516
6721.003035	1.178712	0.704365	598.785828
6721.004005	1.623340	0.704365	2173.425537
6721.004887	1.603865	0.704365	3588.034180
6721.005899	1.556243	0.704365	5162.951660
6721.006962	1.507756	0.704365	6765.696777
6721.007850	1.467217	0.704365	8068.584961
6721.008748	1.427988	0.704365	9350.917969
6721.009856	1.383915	0.704365	10884.295898
6721.010815	1.346323	0.704365	12175.419922
6721.011688	1.312639	0.704365	13321.353516
6721.012736	0.725947	0.704365	14082.146484
6721.013743	0.089348	0.704365	14172.120117
6721.014637	0.085616	0.704365	14248.661133
6721.015580	0.085708	0.704365	14329.483398
6721.016622	0.085679	0.704365	14418.760742
6721.017560	0.085598	0.704365	14499.051758
6721.018422	0.085616	0.704365	14572.853516
6721.019482	0.085693	0.704365	14663.688477
6721.020495	0.085638	0.704365	14750.440430
6721.021375	0.085594	0.704365	14825.763672
6721.022348	0.085741	0.704365	14909.189453
6722.055097	1.098201	0.712023	465.637085
6722.056169	1.620513	0.712023	2202.826660
6722.057177	1.596929	0.712023	3812.530762
6722.058073	1.555356	0.712023	5206.129883
6722.059050	1.510020	0.712023	6681.418945
6722.060105	1.463331	0.712023	8225.233398
6722.061012	1.424392	0.712023	9517.157227
6722.061881	1.387126	0.712023	10722.570312
6722.063002	1.345089	0.712023	12230.415039
6722.063967	1.308285	0.712023	13492.910156
6722.064842	0.790280	0.712023	14184.404297
6722.065936	0.089469	0.712023	14282.283203
6722.066967	0.085642	0.712023	14370.580078
6722.067856	0.085584	0.712023	14446.664062
6722.068804	0.085664	0.712023	14527.874023
6722.069844	0.085580	0.712023	14616.876953
6722.070776	0.085485	0.712023	14696.548828
6722.071636	0.085503	0.712023	14770.081055
6722.072695	0.085712	0.712023	14860.849609
6722.073708	0.085638	0.712023	14947.601562
6722.074583	0.085573	0.712023	15022.477539
6723.080126	1.092191	0.714323	466.365662
6723.080993	1.612603	0.714323	1864.492187
6723.081974	1.607578	0.714323	3441.526367
6723.082902	1.564464	0.714323	4893.349121
6723.083788	1.523060	0.714323	6242.780273
6723.084707	1.482012	0.714323	7604.749023
6723.085663	1.440527	0.714323	8981.893555
6723.086592	1.401676	0.714323	10284.050781
6723.087471	1.366615	0.714323	11485.305664
6723.088393	1.330323	0.714323	12711.864258
6723.089360	1.266779	0.714323	13936.838867
6723.090264	0.282960	0.714323	14192.634766
6723.091138	0.085708	0.714323	14267.543945
6723.092097	0.085602	0.714323	14349.635742
6723.093041	0.085540	0.714323	14430.384766
6723.093928	0.085584	0.714323	14506.296875
6723.094821	0.085624	0.714323	14582.758789
6723.095911	0.085584	0.714323	14676.044922
6723.096933	0.085584	0.714323	14763.511719
6723.097822	0.085573	0.714323	14839.585937
6723.098784	0.085631	0.714323	14921.962891
6724.130804	1.112637	0.733329	531.840393
6724.131742	1.619286	0.733329	2050.730713
6724.132680	1.603824	0.733329	3555.118164
6724.133559	1.563102	0.733329	4929.084473
6724.134501	1.519116	0.733329	6360.091797
6724.135470	1.475706	0.733329	7790.050293
6724.136386	1.436261	0.733329	9105.665039
6724.137248	1.399596	0.733329	10312.117187
6724.138205	1.362345	0.733329	11615.880859
6724.139160	1.325467	0.733329	12881.702148
6724.140063	1.236500	0.733329	13998.261719
6724.140981	0.243029	0.733329	14221.362305
6724.141896	0.085448	0.733329	14299.546875
6724.142837	0.085532	0.733329	14380.032227
6724.143729	0.085551	0.733329	14456.343750
6724.144657	0.085532	0.733329	14535.717773
6724.145604	0.085594	0.733329	14616.775391
6724.146525	0.085532	0.733329	14695.550781
6724.147387	0.085624	0.733329	14769.358398
6724.148334	0.085635	0.733329	14850.454102
6724.149259	0.085609	0.733329	14929.642578
6725.155770	1.081564	0.734412	454.256744
6725.156669	1.612449	0.734412	1903.848145
6725.157611	1.607219	0.734412	3417.848633
6725.158567	1.563589	0.734412	4912.639648
6725.159444	1.522932	0.734412	6248.250977
6725.160378	1.480294	0.734412	7630.845703
6725.161347	1.439048	0.734412	9025.283203
6725.162252	1.400903	0.734412	10293.100586
6725.163127	1.365850	0.734412	11488.218750
6725.164083	1.329060	0.734412	12758.799805
6725.165044	1.248142	0.734412	13958.264648
6725.165940	0.259427	0.734412	14190.711914
6725.166842	0.085719	0.734412	14268.030273
6725.167769	0.085580	0.734412	14347.362305
6725.168727	0.085591	0.734412	14429.358398
6725.169617	0.085584	0.734412	14505.527344
6725.170546	0.085503	0.734412	14584.959961
6725.171492	0.085532	0.734412	14665.873047
6725.172417	0.085573	0.734412	14745.027344
6725.173274	0.085562	0.734412	14818.353516
6725.174211	0.085613	0.734412	14898.572266
6726.207476	1.114102	0.766623	530.312317
6726.208355	1.616891	0.766623	1951.559326
6726.209226	1.609226	0.766623	3353.195312
6726.210184	1.564501	0.766623	4851.987305
6726.211123	1.520680	0.766623	6279.905762
6726.212054	1.479031	0.766623	7656.883301
6726.212921	1.440952	0.766623	8906.188477
6726.213903	1.400951	0.766623	10281.921875
6726.214847	1.363912	0.766623	11569.455078
6726.215746	1.328595	0.766623	12763.862305
6726.216671	1.258674	0.766623	13928.135742
6726.217638	0.256571	0.766623	14176.240234
6726.218551	0.085510	0.766623	14254.311523
6726.219418	0.085635	0.766623	14328.556641
6726.220329	0.085558	0.766623	14406.500000
6726.221292	0.085562	0.766623	14488.895508
6726.222211	0.085518	0.766623	14567.486328
6726.223083	0.085547	0.766623	14642.083008
6726.224055	0.085529	0.766623	14725.216797
6726.224977	0.085562	0.766623	14804.104492
6726.225838	0.085598	0.766623	14877.804687
6727.232519	1.124864	0.753595	561.307373
6727.233498	1.621421	0.753595	2148.678467
6727.234431	1.602264	0.753595	3643.591309
6727.235293	1.560890	0.753595	4989.078613
6727.236366	1.511594	0.753595	6611.019531
6727.237264	1.470677	0.753595	7931.687988
6727.238140	1.433247	0.753595	9187.212891
6727.239059	1.395198	0.753595	10469.399414
6727.240053	1.355537	0.753595	11816.802734
6727.240985	1.320015	0.753595	13047.056641
6727.241869	1.149368	0.753595	14063.097656
6727.242900	0.149326	0.753595	14217.052734
6727.243802	0.085492	0.753595	14294.166016
6727.244717	0.085613	0.753595	14372.501953
6727.245579	0.085573	0.753595	14446.265625
6727.246622	0.085543	0.753595	14535.487305
6727.247498	0.085481	0.753595	14610.368164
6727.248399	0.085496	0.753595	14687.399414
6727.249276	0.085558	0.753595	14762.433594
6727.250261	0.085485	0.753595	14846.635742
6727.251189	0.085521	0.753595	14925.999023
6728.283128	1.155271	0.778192	545.287903
6728.284016	1.617048	0.778192	1981.226807
6728.284898	1.608772	0.778192	3400.163574
6728.285881	1.564083	0.778192	4937.657227
6728.286820	1.519460	0.778192	6364.430664
6728.287741	1.477833	0.778192	7725.515137
6728.288604	1.439692	0.778192	8967.969727
6728.289628	1.397992	0.778192	10399.513672
6728.290535	1.362133	0.778192	11634.967773
6728.291417	1.327767	0.778192	12806.058594
6728.292357	1.202076	0.778192	13936.010742
6728.293338	0.198618	0.778192	14130.855469
6728.294245	0.085536	0.778192	14208.436523
6728.295129	0.085580	0.778192	14284.088867
6728.296140	0.085627	0.778192	14370.658203
6728.297048	0.085569	0.778192	14448.354492
6728.297966	0.085565	0.778192	14526.903320
6728.298828	0.085668	0.778192	14600.749023
6728.299857	0.085580	0.778192	14688.810547
6728.300728	0.085602	0.778192	14763.370117
6728.301604	0.085569	0.778192	14838.328125
6729.308091	1.091642	0.756955	462.856110
6729.309155	1.620337	0.756955	2186.894531
6729.310090	1.601092	0.756955	3683.916016
6729.310966	1.559828	0.756955	5050.325195
6729.311944	1.515179	0.756955	6532.170898
6729.312977	1.468389	0.756955	8049.016602
6729.313860	1.430504	0.756955	9312.151367
6729.314720	1.394268	0.756955	10511.221680
6729.315795	1.353032	0.756955	11965.731445
6729.316717	1.316814	0.756955	13179.833984
6729.317598	1.065308	0.756955	14118.370117
6729.318551	0.143016	0.756955	14254.665039
6729.319588	0.085503	0.756955	14343.332031
6729.320478	0.085503	0.756955	14419.429687
6729.321344	0.085510	0.756955	14493.481445
6729.322382	0.085631	0.756955	14582.366211
6729.323343	0.085540	0.756955	14664.569336
6729.324222	0.085569	0.756955	14739.784180
6729.325140	0.085627	0.756955	14818.390625
6729.326183	0.085616	0.756955	14907.688477
6729.327064	0.085521	0.756955	14983.032227
6730.358808	1.176119	0.790209	595.116455
6730.359776	1.622270	0.790209	2165.474121
6730.360649	1.603850	0.790209	3565.635254
6730.361718	1.553888	0.790209	5226.741211
6730.362774	1.505394	0.790209	6816.437500
6730.363667	1.465030	0.790209	8124.709961
6730.364597	1.425634	0.790209	9450.548828
6730.365673	1.381805	0.790209	10937.371094
6730.366612	1.345166	0.790209	12200.482422
6730.367488	1.311116	0.790209	13349.019531
6730.368560	0.665270	0.790209	14062.188477
6730.369578	0.087664	0.790209	14151.429687
6730.370472	0.085510	0.790209	14227.875977
6730.371428	0.085627	0.790209	14309.735352
6730.372477	0.085518	0.790209	14399.443359
6730.373404	0.085569	0.790209	14478.765625
6730.374263	0.085569	0.790209	14552.269531
6730.375344	0.085620	0.790209	14644.825195
6730.376331	0.085554	0.790209	14729.267578
6730.377210	0.085565	0.790209	14804.479492
6730.378204	0.085536	0.790209	14889.501953
6731.384308	1.173072	0.792058	552.517151
6731.385272	1.619956	0.792058	2114.154785
6731.386202	1.603337	0.792058	3605.258545
6731.387068	1.561692	0.792058	4957.683594
6731.388034	1.518116	0.792058	6424.184082
6731.388967	1.475310	0.792058	7800.648437
6731.389865	1.436679	0.792058	9090.786133
6731.390800	1.397783	0.792058	10397.712891
6731.391888	1.355024	0.792058	11871.979492
6731.392885	1.316389	0.792058	13184.419922
6731.393778	1.049601	0.792058	14121.713867
6731.394757	0.129767	0.792058	14248.755859
6731.395805	0.085616	0.792058	14338.481445
6731.396716	0.085620	0.792058	14416.481445
6731.397579	0.085627	0.792058	14490.377930
6731.398671	0.085638	0.792058	14583.895508
6731.399630	0.085547	0.792058	14665.934570
6731.400509	0.085609	0.792058	14741.184570
6731.401509	0.085745	0.792058	14826.929687
6731.402553	0.085646	0.792058	14916.343750
6731.403441	0.085605	0.792058	14992.361328
6732.434892	1.108066	0.804300	483.116974
6732.435773	1.614825	0.804300	1905.778076
6732.436691	1.609039	0.804300	3382.876221
6732.437658	1.564801	0.804300	4896.039062
6732.438590	1.520922	0.804300	6313.538086
6732.439459	1.481074	0.804300	7600.591797
6732.440411	1.440018	0.804300	8971.489258
6732.441360	1.400387	0.804300	10300.456055
6732.442292	1.364088	0.804300	11571.786133
6732.443155	1.329305	0.804300	12718.976562
6732.444114	1.251705	0.804300	13919.362305
6732.445072	0.254835	0.804300	14163.494141
6732.445958	0.085573	0.804300	14239.311523
6732.446874	0.085598	0.804300	14317.719727
6732.447811	0.085514	0.804300	14397.846680
6732.448734	0.085551	0.804300	14476.809570
6732.449619	0.085624	0.804300	14552.586914
6732.450556	0.085562	0.804300	14632.757812
6732.451504	0.085573	0.804300	14713.880859
6732.452380	0.085635	0.804300	14788.896484
6732.453285	0.085605	0.804300	14866.369141
6733.459902	1.102489	0.798999	467.455322
6733.460829	1.616924	0.798999	1966.343750
6733.461709	1.609127	0.798999	3382.375488
6733.462661	1.564940	0.798999	4872.198730
6733.463620	1.520372	0.798999	6330.235840
6733.464550	1.478203	0.798999	7704.964844
6733.465422	1.440143	0.798999	8960.769531
6733.466386	1.401332	0.798999	10311.653320
6733.467326	1.364312	0.798999	11594.106445
6733.468221	1.328899	0.798999	12783.470703
6733.469103	1.272876	0.798999	13906.147461
6733.470057	0.267360	0.798999	14161.208984
6733.471002	0.085646	0.798999	14242.144531
6733.471897	0.085554	0.798999	14318.715820
6733.472804	0.085573	0.798999	14396.330078
6733.473758	0.085573	0.798999	14477.965820
6733.474681	0.085499	0.798999	14556.881836
6733.475543	0.085551	0.798999	14630.625977
6733.476507	0.085605	0.798999	14713.149414
6733.477433	0.085624	0.798999	14792.437500
6733.478332	0.085638	0.798999	14869.426758
6734.120759	1.139011	0.010338	518.250122
6734.121693	1.622172	0.010338	2033.358398
6734.122557	1.608204	0.010338	3422.846924
6734.123535	1.563179	0.010338	4951.635742
6734.124489	1.519387	0.010338	6401.131348
6734.125371	1.478954	0.010338	7705.568848
6734.126285	1.439293	0.010338	9021.083008
6734.127245	1.399915	0.010338	10365.000977
6734.128171	1.363374	0.010338	11627.485352
6734.129048	1.328983	0.010338	12793.003906
6734.129994	1.256071	0.010338	13981.247070
6734.130928	0.237821	0.010338	14203.372070
6734.131836	0.085525	0.010338	14281.028320
6734.132696	0.085492	0.010338	14354.551758
6734.133662	0.085525	0.010338	14437.168945
6734.134598	0.085605	0.010338	14517.295898
6734.135486	0.085551	0.010338	14593.264648
6734.136394	0.085518	0.010338	14670.915039
6734.137343	0.085573	0.010338	14752.123047
6734.138263	0.085547	0.010338	14830.826172
6734.139138	0.085492	0.010338	14905.631836
