time (s)	coil I (A)	last det (V)	int current (uC)
7575.723508	1.118815	0.359771	525.842896
7575.724393	1.621399	0.359771	1960.780884
7575.725264	1.613511	0.359771	3366.148682
7575.726212	1.570228	0.359771	4854.725098
7575.727140	1.525452	0.359771	6270.344238
7575.728077	1.098556	0.359771	7299.691406
7575.728941	0.127247	0.359771	7409.633301
7575.729902	0.085558	0.359771	7491.854492
7575.730849	0.085660	0.359771	7572.975098
7575.731739	0.085682	0.359771	7649.232422
7575.732669	0.085609	0.359771	7728.849121
7575.733623	0.085594	0.359771	7810.506348
7575.734520	0.085635	0.359771	7887.320801
7575.735409	0.085627	0.359771	7963.443359
7575.736317	0.085646	0.359771	8041.209473
7575.737267	0.085635	0.359771	8122.562500
7576.726487	1.113164	0.344096	496.471161
7576.727361	1.618802	0.344096	1911.304565
7576.728272	1.613353	0.344096	3381.069336
7576.729228	1.569042	0.344096	4881.073242
7576.730164	1.525554	0.344096	6308.992187
7576.731047	1.141300	0.344096	7316.760254
7576.732001	0.122465	0.344096	7433.591309
7576.732926	0.085620	0.344096	7512.790039
7576.733848	0.085554	0.344096	7591.670898
7576.734706	0.085481	0.344096	7665.013672
7576.735668	0.085580	0.344096	7747.341309
7576.736617	0.085605	0.344096	7828.581055
7576.737510	0.085635	0.344096	7905.052734
7576.738441	0.085657	0.344096	7984.799316
7576.739366	0.085558	0.344096	8063.940430
7576.740286	0.085536	0.344096	8142.633301
7577.799144	1.120529	0.371848	521.045776
7577.800047	1.621044	0.371848	1984.848267
7577.800924	1.613115	0.371848	3399.550293
7577.801845	1.571169	0.371848	4846.597656
7577.802799	1.526407	0.371848	6302.790527
7577.803700	1.151561	0.371848	7340.347168
7577.804579	0.139270	0.371848	7462.765625
7577.805538	0.085543	0.371848	7544.801758
7577.806481	0.085627	0.371848	7625.548340
7577.807373	0.085598	0.371848	7701.901855
7577.808278	0.085580	0.371848	7779.351562
7577.809238	0.085664	0.371848	7861.588867
7577.810155	0.085602	0.371848	7940.085937
7577.811014	0.085580	0.371848	8013.599121
7577.811979	0.085605	0.371848	8096.208496
7577.812906	0.085653	0.371848	8175.608887
7578.803143	1.104624	0.357918	477.197571
7578.804115	1.617755	0.357918	2049.655518
7578.805087	1.607223	0.357918	3611.876221
7578.806018	1.563743	0.357918	5067.720703
7578.806885	1.522650	0.357918	6387.858398
7578.807929	0.846687	0.357918	7271.799805
7578.808804	0.098141	0.357918	7357.672852
7578.809671	0.085499	0.357918	7431.800781
7578.810607	0.085594	0.357918	7511.916992
7578.811603	0.085624	0.357918	7597.198242
7578.812497	0.085605	0.357918	7673.729492
7578.813386	0.085591	0.357918	7749.819824
7578.814379	0.085602	0.357918	7834.822266
7578.815290	0.085573	0.357918	7912.778809
7578.816212	0.085587	0.357918	7991.689941
7578.817075	0.085529	0.357918	8065.500977
7579.874755	1.103265	0.382925	475.507385
7579.875643	1.618542	0.382925	1912.772949
7579.876508	1.613727	0.382925	3308.646729
7579.877610	1.564786	0.382925	5033.041016
7579.878531	1.521288	0.382925	6434.146973
7579.879415	1.034326	0.382925	7348.491211
7579.880426	0.108918	0.382925	7458.607910
7579.881423	0.085587	0.382925	7543.938477
7579.882316	0.085635	0.382925	7620.410156
7579.883317	0.085726	0.382925	7706.222168
7579.884359	0.085660	0.382925	7795.480469
7579.885242	0.085638	0.382925	7871.099121
7579.886099	0.085573	0.382925	7944.434570
7579.887207	0.085701	0.382925	8039.391113
7579.888169	0.085609	0.382925	8121.747070
7579.889037	0.085660	0.382925	8196.100586
7580.877270	1.121137	0.368097	496.663483
7580.878146	1.618418	0.368097	1914.397583
7580.879092	1.611544	0.368097	3438.918457
7580.880052	1.567577	0.368097	4943.791992
7580.880978	1.524368	0.368097	6355.356445
7580.881847	1.122598	0.368097	7330.894043
7580.882795	0.121469	0.368097	7446.046387
7580.883745	0.085532	0.368097	7527.301758
7580.884632	0.085532	0.368097	7603.168945
7580.885519	0.085514	0.368097	7679.020020
7580.886466	0.085496	0.368097	7759.984375
7580.887408	0.085547	0.368097	7840.569336
7580.888291	0.085551	0.368097	7916.110352
7580.889205	0.085481	0.368097	7994.239746
7580.890170	0.085569	0.368097	8076.813477
7580.891090	0.085496	0.368097	8155.469238
7581.949919	1.132291	0.388843	519.721680
7581.950817	1.621260	0.388843	1975.613037
7581.951685	1.612698	0.388843	3375.434570
7581.952658	1.568485	0.388843	4901.570312
7581.953605	1.524734	0.388843	6345.493164
7581.954499	1.105887	0.388843	7334.156250
7581.955420	0.128976	0.388843	7452.942871
7581.956373	0.085536	0.388843	7534.458496
7581.957288	0.085627	0.388843	7612.807617
7581.958158	0.085675	0.388843	7687.344727
7581.959065	0.085631	0.388843	7765.012207
7581.960015	0.085569	0.388843	7846.302734
7581.960907	0.085649	0.388843	7922.702148
7581.961810	0.085664	0.388843	8000.056641
7581.962766	0.085587	0.388843	8081.877930
7581.963687	0.085605	0.388843	8160.720703
7582.952899	1.088130	0.378833	466.807709
7582.953766	1.616451	0.378833	1868.271118
7582.954707	1.613192	0.378833	3386.284912
7582.955653	1.568734	0.378833	4870.307617
7582.956575	1.526023	0.378833	6277.300781
7582.957442	1.145511	0.378833	7270.458984
7582.958413	0.126680	0.378833	7393.464844
7582.959354	0.085455	0.378833	7473.878418
7582.960244	0.085671	0.378833	7550.125977
7582.961174	0.085551	0.378833	7629.687988
7582.962103	0.085587	0.378833	7709.198242
7582.963036	0.085554	0.378833	7789.020508
7582.963909	0.085616	0.378833	7863.763672
7582.964857	0.085605	0.378833	7944.917480
7582.965805	0.085605	0.378833	8026.071289
7582.966727	0.085642	0.378833	8105.033203
7584.026062	1.110330	0.389608	491.876038
7584.026930	1.617239	0.389608	1895.639160
7584.027918	1.610398	0.389608	3486.712402
7584.028845	1.567357	0.389608	4939.652344
7584.029727	1.525807	0.389608	6285.414062
7584.030673	1.088408	0.389608	7315.048340
7584.031618	0.117231	0.389608	7425.832031
7584.032536	0.085547	0.389608	7504.364258
7584.033398	0.085594	0.389608	7578.146484
7584.034412	0.085573	0.389608	7664.916992
7584.035338	0.085558	0.389608	7744.143555
7584.036225	0.085518	0.389608	7819.997559
7584.037105	0.085594	0.389608	7895.320801
7584.038099	0.085591	0.389608	7980.397949
7584.039015	0.085565	0.389608	8058.775879
7584.039880	0.085635	0.389608	8132.850098
7585.028036	1.104386	0.375522	480.407898
7585.028903	1.616781	0.375522	1882.156982
7585.030020	1.605271	0.375522	3675.244629
7585.030988	1.559861	0.375522	5185.189941
7585.031859	1.519050	0.375522	6508.282715
7585.032951	0.662314	0.375522	7231.530273
7585.033972	0.087634	0.375522	7321.004883
7585.034865	0.085660	0.375522	7397.499512
7585.035777	0.085631	0.375522	7475.595215
7585.036840	0.085675	0.375522	7566.667969
7585.037781	0.085565	0.375522	7647.184570
7585.038642	0.085580	0.375522	7720.868652
7585.039688	0.085642	0.375522	7810.450195
7585.040704	0.085554	0.375522	7897.373047
7585.041580	0.085565	0.375522	7972.328125
7585.042505	0.085660	0.375522	8051.563965
7586.101179	1.085958	0.393065	458.274384
7586.102153	1.620179	0.393065	2036.329224
7586.103086	1.609819	0.393065	3538.290771
7586.103971	1.567994	0.393065	4925.965820
7586.104843	1.525884	0.393065	6256.536621
7586.105812	1.051249	0.393065	7275.196777
7586.106751	0.112632	0.393065	7380.958008
7586.107639	0.085562	0.393065	7456.936523
7586.108550	0.085682	0.393065	7534.993164
7586.109510	0.085558	0.393065	7617.128906
7586.110402	0.085646	0.393065	7693.524902
7586.111284	0.085591	0.393065	7769.016113
7586.112226	0.085638	0.393065	7849.687500
7586.113181	0.085562	0.393065	7931.398926
7586.114055	0.085649	0.393065	8006.256348
7586.114964	0.085602	0.393065	8084.068359
7587.103788	1.160233	0.374502	623.045166
7587.104666	1.623937	0.374502	2048.861816
7587.105580	1.609036	0.374502	3519.520508
7587.106459	1.567647	0.374502	4897.481934
7587.107422	1.522346	0.374502	6363.500977
7587.108355	0.990872	0.374502	7287.984375
7587.109277	0.104791	0.374502	7384.602051
7587.110145	0.085565	0.374502	7458.872559
7587.111107	0.085605	0.374502	7541.225098
7587.112060	0.085565	0.374502	7622.768555
7587.112953	0.085576	0.374502	7699.187988
7587.113875	0.085554	0.374502	7778.068848
7587.114826	0.085565	0.374502	7859.441406
7587.115718	0.085591	0.374502	7935.788574
7587.116608	0.085554	0.374502	8011.931641
7587.117518	0.085660	0.374502	8089.882812
7588.175801	1.083384	0.407595	458.271332
7588.176828	1.621912	0.407595	2123.974609
7588.177733	1.607948	0.407595	3579.167480
7588.178616	1.566379	0.407595	4962.280273
7588.179478	1.523851	0.407595	6275.839844
7588.180540	0.924045	0.407595	7257.175781
7588.181429	0.103063	0.407595	7348.798340
7588.182299	0.085496	0.407595	7423.179687
7588.183291	0.085609	0.407595	7508.104004
7588.184206	0.085554	0.407595	7586.386230
7588.185106	0.085558	0.407595	7663.388184
7588.185984	0.085594	0.407595	7738.540039
7588.187005	0.085540	0.407595	7825.875977
7588.187906	0.085690	0.407595	7903.082520
7588.188818	0.085569	0.407595	7981.121094
7588.189688	0.085624	0.407595	8055.613770
7589.179427	1.188351	0.389894	610.812317
7589.180415	1.627006	0.389894	2218.293945
7589.181307	1.606040	0.389894	3650.881592
7589.182172	1.563864	0.389894	5003.623535
7589.183265	1.514689	0.389894	6659.178223
7589.184184	0.748429	0.389894	7346.984375
7589.185048	0.093776	0.389894	7428.006348
7589.186032	0.085668	0.389894	7512.303223
7589.187040	0.085576	0.389894	7598.563965
7589.187923	0.085573	0.389894	7674.124512
7589.188788	0.085587	0.389894	7748.157227
7589.189860	0.085591	0.389894	7839.910645
7589.190778	0.085576	0.389894	7918.469727
7589.191661	0.085554	0.389894	7994.014160
7589.192625	0.085609	0.389894	8076.541504
7589.193639	0.085602	0.389894	8163.341797
7590.250939	1.083658	0.412038	456.220154
7590.251843	1.615400	0.412038	1916.542236
7590.252936	1.605015	0.412038	3670.823242
7590.253896	1.559949	0.412038	5168.374023
7590.254763	1.519171	0.412038	6485.495117
7590.255805	0.742255	0.412038	7258.924316
7590.256827	0.088802	0.412038	7349.680664
7590.257707	0.085584	0.412038	7424.994141
7590.258644	0.085675	0.412038	7505.271484
7590.259693	0.085690	0.412038	7595.160156
7590.260621	0.085613	0.412038	7674.608887
7590.261484	0.085671	0.412038	7748.543457
7590.262533	0.085756	0.412038	7838.500977
7590.263559	0.085642	0.412038	7926.369629
7590.264429	0.085609	0.412038	8000.849609
7590.265383	0.085675	0.412038	8082.583496
7591.255019	1.154601	0.400888	544.971619
7591.255950	1.623358	0.400888	2056.318115
7591.256833	1.610889	0.400888	3478.732910
7591.257749	1.567969	0.400888	4914.992187
7591.258712	1.523156	0.400888	6381.791016
7591.259644	1.024431	0.400888	7336.560547
7591.260511	0.116217	0.400888	7437.320801
7591.261481	0.085521	0.400888	7520.276367
7591.262408	0.085584	0.400888	7599.612305
7591.263295	0.085558	0.400888	7675.501953
7591.264171	0.085518	0.400888	7750.415527
7591.265139	0.085551	0.400888	7833.228516
7591.266059	0.085609	0.400888	7911.988770
7591.266931	0.085580	0.400888	7986.614258
7591.267906	0.085543	0.400888	8070.019043
7591.268855	0.085543	0.400888	8151.199707
7592.327146	1.163815	0.414193	542.337646
7592.328105	1.623812	0.414193	2099.573730
7592.328996	1.609464	0.414193	3533.606445
7592.329965	1.564607	0.414193	5049.710937
7592.330919	1.520087	0.414193	6499.873535
7592.331850	0.948611	0.414193	7383.030273
7592.332714	0.107146	0.414193	7475.604492
7592.333640	0.085635	0.414193	7554.902344
7592.334589	0.085602	0.414193	7636.138672
7592.335509	0.085635	0.414193	7714.922852
7592.336382	0.085591	0.414193	7789.643555
7592.337347	0.085635	0.414193	7872.281250
7592.338293	0.085675	0.414193	7953.330078
7592.339179	0.085635	0.414193	8029.202637
7592.340081	0.085584	0.414193	8106.398926
7592.341009	0.085646	0.414193	8185.878418
7593.330114	1.099867	0.398547	472.942810
7593.330997	1.618001	0.398547	1901.637207
7593.331873	1.614968	0.398547	3316.349365
7593.332905	1.568489	0.398547	4935.029785
7593.333819	1.524254	0.398547	6328.198242
7593.334744	1.075481	0.398547	7323.018066
7593.335606	0.124032	0.398547	7429.933594
7593.336661	0.085642	0.398547	7520.286133
7593.337531	0.085565	0.398547	7594.728027
7593.338406	0.085664	0.398547	7669.684082
7593.339385	0.085602	0.398547	7753.488281
7593.340321	0.085554	0.398547	7833.566895
7593.341237	0.085635	0.398547	7912.008301
7593.342101	0.085642	0.398547	7986.002930
7593.343127	0.085613	0.398547	8073.841797
7593.344007	0.085620	0.398547	8149.187500
7594.402341	1.181858	0.415913	609.838684
7594.403348	1.627068	0.415913	2248.296143
7594.404235	1.605095	0.415913	3672.015625
7594.405256	1.557623	0.415913	5262.349121
7594.406288	1.509866	0.415913	6820.530762
7594.407181	0.625309	0.415913	7378.931641
7594.408074	0.089952	0.415913	7459.259277
7594.409163	0.085664	0.415913	7552.547363
7594.410115	0.085587	0.415913	7634.026367
7594.410974	0.085605	0.415913	7707.561523
7594.411993	0.085638	0.415913	7794.827148
7594.413025	0.085562	0.415913	7883.126465
7594.413912	0.085605	0.415913	7959.058594
7594.414841	0.085565	0.415913	8038.548828
7594.415901	0.085587	0.415913	8129.270996
7594.416833	0.085638	0.415913	8209.085937
7595.406806	1.107499	0.407249	501.696930
7595.407759	1.623376	0.407249	2048.774658
7595.408689	1.608373	0.407249	3544.561523
7595.409573	1.567207	0.407249	4929.972656
7595.410483	1.524097	0.407249	6316.900391
7595.411457	1.004249	0.407249	7295.039062
7595.412380	0.106271	0.407249	7393.126953
7595.413240	0.085518	0.407249	7466.671875
7595.414210	0.085576	0.407249	7549.680664
7595.415156	0.085584	0.407249	7630.642578
7595.416039	0.085627	0.407249	7706.251465
7595.416914	0.085591	0.407249	7781.143555
7595.417858	0.085540	0.407249	7861.893066
7595.418811	0.085620	0.407249	7943.489258
7595.419700	0.085573	0.407249	8019.562988
7595.420611	0.085565	0.407249	8097.512695
7596.476896	1.107268	0.421759	509.343262
7596.477830	1.621600	0.421759	2023.917969
7596.478708	1.611119	0.421759	3438.480957
7596.479585	1.569844	0.421759	4815.233887
7596.480542	1.524979	0.421759	6274.639160
7596.481517	1.039794	0.421759	7288.437988
7596.482392	0.117327	0.421759	7391.098633
7596.483304	0.085503	0.421759	7469.077148
7596.484261	0.085602	0.421759	7550.998047
7596.485186	0.085507	0.421759	7630.091797
7596.486063	0.085587	0.421759	7705.151855
7596.487007	0.085532	0.421759	7785.894043
7596.487924	0.085536	0.421759	7864.330566
7596.488843	0.085554	0.421759	7942.955078
7596.489708	0.085591	0.421759	8016.991211
7596.490674	0.085499	0.421759	8099.583496
7597.482565	1.222749	0.411712	685.962158
7597.483465	1.625240	0.411712	2148.678711
7597.484391	1.606315	0.411712	3636.126221
7597.485261	1.563549	0.411712	4996.413574
7597.486301	1.517095	0.411712	6574.192383
7597.487182	0.893251	0.411712	7361.146484
7597.488056	0.101239	0.411712	7449.629395
7597.489047	0.085584	0.411712	7534.442871
7597.489975	0.085558	0.411712	7613.840332
7597.490898	0.085514	0.411712	7692.769531
7597.491761	0.085624	0.411712	7766.663086
7597.492801	0.085532	0.411712	7855.616699
7597.493692	0.085565	0.411712	7931.855469
7597.494563	0.085562	0.411712	8006.379395
7597.495522	0.085609	0.411712	8088.478516
7597.496484	0.085554	0.411712	8170.781738
7598.552607	1.181188	0.437549	617.761169
7598.553481	1.623051	0.437549	2036.307373
7598.554422	1.607915	0.437549	3549.355469
7598.555491	1.557861	0.437549	5214.708984
7598.556442	1.513795	0.437549	6654.328125
7598.557318	0.808696	0.437549	7362.746094
7598.558347	0.090469	0.437549	7455.838379
7598.559366	0.085580	0.437549	7543.044434
7598.560251	0.085569	0.437549	7618.772949
7598.561197	0.085712	0.437549	7699.855957
7598.562243	0.085638	0.437549	7789.433594
7598.563180	0.085616	0.437549	7869.656250
7598.564040	0.085605	0.437549	7943.276855
7598.565102	0.085690	0.437549	8034.279297
7598.566091	0.085576	0.437549	8118.914062
7598.566984	0.085569	0.437549	8195.327148
7599.557637	1.145515	0.415821	561.302368
7599.558516	1.621209	0.415821	1986.344727
7599.559376	1.612566	0.415821	3373.151367
7599.560335	1.568980	0.415821	4877.802734
7599.561264	1.524272	0.415821	6293.851562
7599.562192	1.091177	0.415821	7306.463379
7599.563053	0.126324	0.415821	7415.228516
7599.564018	0.085543	0.415821	7497.777832
7599.564968	0.085536	0.415821	7579.037109
7599.565858	0.085540	0.415821	7655.167480
7599.566774	0.085631	0.415821	7733.605469
7599.567730	0.085609	0.415821	7815.447754
7599.568650	0.085638	0.415821	7894.235352
7599.569511	0.085605	0.415821	7967.941895
7599.570442	0.085605	0.415821	8047.640625
7599.571398	0.085584	0.415821	8129.458496
7600.627682	1.114406	0.436853	512.626526
7600.628570	1.620319	0.436853	1951.469482
7600.629490	1.611921	0.436853	3434.437012
7600.630439	1.566870	0.436853	4921.396484
7600.631353	1.524115	0.436853	6314.437500
7600.632229	1.094238	0.436853	7272.990234
7600.633193	0.117942	0.436853	7386.686035
7600.634135	0.085488	0.436853	7467.215820
7600.635023	0.085660	0.436853	7543.282227
7600.635952	0.085631	0.436853	7622.833496
7600.636890	0.085481	0.436853	7703.014648
7600.637803	0.085587	0.436853	7781.155762
7600.638693	0.085609	0.436853	7857.347656
7600.639607	0.085584	0.436853	7935.570801
7600.640560	0.085646	0.436853	8017.191406
7600.641472	0.085573	0.436853	8095.233398
7601.632729	1.107572	0.419966	490.654388
7601.633597	1.617887	0.419966	1894.980225
7601.634522	1.611749	0.419966	3385.848145
7601.635589	1.563065	0.419966	5053.638672
7601.636486	1.520863	0.419966	6417.852539
7601.637358	1.052424	0.419966	7335.566406
7601.638367	0.105194	0.419966	7441.707031
7601.639335	0.085492	0.419966	7524.463379
7601.640210	0.085602	0.419966	7599.364746
7601.641066	0.085602	0.419966	7672.639648
7601.642175	0.085580	0.419966	7767.547852
7601.643067	0.085587	0.419966	7843.891602
7601.643934	0.085540	0.419966	7918.054199
7601.644791	0.085613	0.419966	7991.424316
7601.645855	0.085518	0.419966	8082.415039
7601.646726	0.085605	0.419966	8156.977539
7602.704457	1.228539	0.449538	684.296143
7602.705499	1.627211	0.449538	2379.849609
7602.706390	1.601092	0.449538	3806.422852
7602.707321	1.557209	0.449538	5256.185059
7602.708378	1.508188	0.449538	6850.340332
7602.709329	0.512853	0.449538	7338.063477
7602.710190	0.088165	0.449538	7413.973633
7602.711236	0.085620	0.449538	7503.532227
7602.712259	0.085635	0.449538	7591.136719
7602.713142	0.085620	0.449538	7666.739258
7602.714087	0.085631	0.449538	7747.660645
7602.715156	0.085616	0.449538	7839.184570
7602.716076	0.085620	0.449538	7917.955078
7602.716944	0.085602	0.449538	7992.257324
7602.717986	0.085653	0.449538	8081.507812
7602.718998	0.085609	0.449538	8168.144043
7603.708863	1.089683	0.422423	464.204773
7603.709785	1.619821	0.422423	1957.679443
7603.710725	1.609578	0.422423	3470.682373
7603.711651	1.567134	0.422423	4921.848145
7603.712517	1.525594	0.422423	6243.012695
7603.713489	1.071735	0.422423	7284.738770
7603.714445	0.111724	0.422423	7391.546387
7603.715333	0.085598	0.422423	7467.557617
7603.716244	0.085576	0.422423	7545.517578
7603.717199	0.085664	0.422423	7627.326660
7603.718116	0.085529	0.422423	7705.756348
7603.718973	0.085635	0.422423	7779.145508
7603.719887	0.085573	0.422423	7857.358887
7603.720843	0.085631	0.422423	7939.222168
7603.721764	0.085554	0.422423	8018.017578
7603.722633	0.085565	0.422423	8092.373535
7604.778973	1.130757	0.452051	498.663727
7604.779861	1.618447	0.452051	1935.844849
7604.780737	1.613580	0.452051	3349.341309
7604.781597	1.571979	0.452051	4701.243164
7604.782620	1.526129	0.452051	6262.473145
7604.783559	1.109429	0.452051	7304.226562
7604.784433	0.129130	0.452051	7417.085937
7604.785363	0.085569	0.452051	7496.665039
7604.786300	0.085591	0.452051	7576.863770
7604.787221	0.085616	0.452051	7655.716309
7604.788103	0.085638	0.452051	7731.249512
7604.789031	0.085584	0.452051	7810.670898
7604.789977	0.085573	0.452051	7891.622559
7604.790903	0.085616	0.452051	7970.903320
7604.791763	0.085573	0.452051	8044.495605
7604.792727	0.085554	0.452051	8126.969727
7605.784608	1.186860	0.437114	604.111877
7605.785576	1.625914	0.437114	2177.996826
7605.786443	1.607750	0.437114	3571.916260
7605.787511	1.557715	0.437114	5235.555664
7605.788562	1.509137	0.437114	6821.658691
7605.789445	0.632651	0.437114	7380.290039
7605.790375	0.090432	0.437114	7464.392090
7605.791430	0.085613	0.437114	7554.713379
7605.792366	0.085635	0.437114	7634.867676
7605.793223	0.085682	0.437114	7708.297363
7605.794248	0.085620	0.437114	7796.058105
7605.795288	0.085649	0.437114	7885.133301
7605.796163	0.085613	0.437114	7960.044434
7605.797110	0.085671	0.437114	8041.175293
7605.798173	0.085660	0.437114	8132.232422
7605.799101	0.085587	0.437114	8211.657227
7606.854084	1.112428	0.461518	482.793732
7606.855015	1.620564	0.461518	1991.538696
7606.855885	1.611757	0.461518	3393.767090
7606.856870	1.566976	0.461518	4937.238770
7606.857824	1.522848	0.461518	6390.035645
7606.858716	1.074166	0.461518	7348.191895
7606.859625	0.121754	0.461518	7458.866211
7606.860576	0.085503	0.461518	7540.179687
7606.861495	0.085598	0.461518	7618.844238
7606.862372	0.085602	0.461518	7693.916992
7606.863295	0.085569	0.461518	7772.896973
7606.864230	0.085642	0.461518	7852.972168
7606.865150	0.085584	0.461518	7931.708984
7606.866014	0.085631	0.461518	8005.694336
7606.866982	0.085605	0.461518	8088.560547
7606.867935	0.085613	0.461518	8170.149414
7607.860162	1.092275	0.441526	467.493866
7607.861034	1.616386	0.441526	1876.982178
7607.861953	1.613862	0.441526	3360.121582
7607.862918	1.569155	0.441526	4874.356445
7607.863827	1.525569	0.441526	6261.098633
7607.864711	1.180514	0.441526	7304.672852
7607.865642	0.137161	0.441526	7432.369629
7607.866597	0.085426	0.441526	7513.951660
7607.867474	0.085532	0.441526	7588.963379
7607.868384	0.085653	0.441526	7666.907715
7607.869332	0.085573	0.441526	7748.030273
7607.870245	0.085569	0.441526	7826.154785
7607.871117	0.085624	0.441526	7900.818848
7607.872029	0.085576	0.441526	7978.864258
7607.872984	0.085591	0.441526	8060.603516
7607.873912	0.085594	0.441526	8140.035156
7608.325109	1.160812	0.002298	543.259888
7608.325994	1.622106	0.002298	1978.823486
7608.326869	1.612156	0.002298	3389.459961
7608.327845	1.567024	0.002298	4918.875000
7608.328793	1.521899	0.002298	6361.635742
7608.329719	1.039633	0.002298	7324.335449
7608.330581	0.116722	0.002298	7424.950195
7608.331614	0.085492	0.002298	7513.263184
7608.332511	0.085565	0.002298	7590.015137
7608.333382	0.085543	0.002298	7664.523437
7608.334308	0.085580	0.002298	7743.770508
7608.335300	0.085510	0.002298	7828.596680
7608.336189	0.085536	0.002298	7904.638184
7608.337075	0.085492	0.002298	7980.384277
7608.338072	0.085591	0.002298	8065.718262
7608.338991	0.085488	0.002298	8144.282227
7608.887860	1.195162	0.244371	635.826355
7608.888784	1.624541	0.244371	2136.902100
7608.889660	1.607886	0.244371	3545.410156
7608.890630	1.563120	0.244371	5061.636719
7608.891668	1.514791	0.244371	6633.990234
7608.892549	0.822814	0.244371	7358.889160
7608.893411	0.097668	0.244371	7443.079590
7608.894445	0.085594	0.244371	7531.584473
7608.895392	0.085569	0.244371	7612.618164
7608.896266	0.085547	0.244371	7687.386230
7608.897195	0.085675	0.244371	7766.978516
7608.898246	0.085587	0.244371	7856.930664
7608.899137	0.085594	0.244371	7933.195312
7608.900001	0.085631	0.244371	8007.180664
7608.901047	0.085653	0.244371	8096.773926
7608.901994	0.085605	0.244371	8177.842285
7609.933858	1.173951	0.429223	598.715210
7609.934888	1.626123	0.429223	2273.622070
7609.935766	1.604150	0.429223	3682.066162
7609.936728	1.559366	0.429223	5182.176758
7609.937794	1.509331	0.429223	6791.123535
7609.938722	0.585341	0.429223	7334.319336
7609.939591	0.089220	0.429223	7411.851562
7609.940664	0.085774	0.429223	7503.887207
7609.941661	0.085609	0.429223	7589.239746
7609.942553	0.085635	0.429223	7665.625977
7609.943534	0.085708	0.429223	7749.705566
7609.944565	0.085737	0.429223	7838.100586
7609.945476	0.085565	0.429223	7916.050293
7609.946338	0.085594	0.429223	7989.832520
7609.947416	0.085679	0.429223	8082.194336
7609.948401	0.085573	0.429223	8166.483398
7611.003360	1.132485	0.468435	508.485901
7611.004240	1.618491	0.468435	1932.758057
7611.005101	1.612661	0.468435	3321.259277
7611.006077	1.568496	0.468435	4852.111328
7611.007033	1.524067	0.468435	6309.119629
7611.007939	1.110809	0.468435	7315.512695
7611.008854	0.127540	0.468435	7432.211914
7611.009810	0.085547	0.468435	7513.994629
7611.010720	0.085525	0.468435	7591.822266
7611.011611	0.085616	0.468435	7668.106445
7611.012540	0.085540	0.468435	7747.572754
7611.013490	0.085569	0.468435	7828.863281
7611.014412	0.085584	0.468435	7907.771484
7611.015271	0.085532	0.468435	7981.243652
7611.016214	0.085503	0.468435	8061.873047
7611.017166	0.085499	0.468435	8143.268555
7612.010935	1.106444	0.460600	466.919373
7612.011912	1.622172	0.460600	2051.781006
7612.012833	1.608647	0.460600	3533.345215
7612.013714	1.566416	0.460600	4913.357910
7612.014744	1.519464	0.460600	6478.406250
7612.015649	0.952086	0.460600	7340.043945
7612.016566	0.101906	0.460600	7433.491211
7612.017430	0.085591	0.460600	7507.441895
7612.018430	0.085547	0.460600	7592.988770
7612.019345	0.085540	0.460600	7671.257324
7612.020219	0.085631	0.460600	7746.099121
7612.021142	0.085602	0.460600	7825.109375
7612.022061	0.085624	0.460600	7903.797852
7612.022987	0.085613	0.460600	7983.075195
7612.023859	0.085562	0.460600	8057.685059
7612.024868	0.085525	0.460600	8143.979492
7613.080606	1.179701	0.475416	596.928650
7613.081561	1.624779	0.475416	2148.592773
7613.082438	1.607798	0.475416	3558.631348
7613.083340	1.564153	0.475416	4969.497070
7613.084435	1.515055	0.475416	6628.482422
7613.085327	0.817701	0.475416	7357.872070
7613.086197	0.096302	0.475416	7441.655273
7613.087218	0.085569	0.475416	7529.020996
7613.088182	0.085602	0.475416	7611.541016
7613.089054	0.085518	0.475416	7686.112305
7613.089927	0.085712	0.475416	7760.938477
7613.091028	0.085620	0.475416	7855.206055
7613.091916	0.085474	0.475416	7931.106445
7613.092786	0.085602	0.475416	8005.580078
7613.093887	0.085679	0.475416	8099.912109
7613.094857	0.085631	0.475416	8182.974121
7614.087683	1.152436	0.460277	572.760925
7614.088562	1.621296	0.460277	1997.880371
7614.089474	1.609372	0.460277	3465.627930
7614.090556	1.559751	0.460277	5153.278320
7614.091506	1.515762	0.460277	6593.251953
7614.092371	0.889003	0.460277	7362.239258
7614.093400	0.093204	0.460277	7458.146484
7614.094443	0.085587	0.460277	7547.414062
7614.095319	0.085638	0.460277	7622.433105
7614.096260	0.085638	0.460277	7703.019043
7614.097314	0.085682	0.460277	7793.328125
7614.098243	0.085536	0.460277	7872.791016
7614.099108	0.085569	0.460277	7946.808105
7614.100161	0.085576	0.460277	8036.919922
7614.101169	0.085613	0.460277	8123.217773
7614.102062	0.085569	0.460277	8199.630859
7615.155683	1.108301	0.487730	506.493469
7615.156572	1.619418	0.487730	1946.155762
7615.157442	1.612939	0.487730	3349.413086
7615.158363	1.569221	0.487730	4794.666016
7615.159328	1.524606	0.487730	6265.910645
7615.160261	1.105818	0.487730	7297.638672
7615.161120	0.129968	0.487730	7409.281250
7615.162089	0.085503	0.487730	7492.133789
7615.163043	0.085631	0.487730	7573.825684
7615.163929	0.085598	0.487730	7649.665527
7615.164823	0.085551	0.487730	7726.147949
7615.165751	0.085540	0.487730	7805.528809
7615.166696	0.085547	0.487730	7886.370605
7615.167584	0.085576	0.487730	7962.362305
7615.168493	0.085653	0.487730	8040.220703
7615.169451	0.085605	0.487730	8122.230957
7616.161749	1.099087	0.470300	486.895477
7616.162621	1.617535	0.470300	1897.386353
7616.163490	1.614192	0.470300	3300.119141
7616.164455	1.569159	0.470300	4814.357422
7616.165384	1.525653	0.470300	6231.688965
7616.166316	1.138440	0.470300	7292.714844
7616.167179	0.135461	0.470300	7409.618164
7616.168181	0.085514	0.470300	7495.303223
7616.169109	0.085569	0.470300	7574.710937
7616.169972	0.085598	0.470300	7648.582031
7616.171007	0.085576	0.470300	7737.153320
7616.171898	0.085547	0.470300	7813.375488
7616.172820	0.085551	0.470300	7892.252930
7616.173680	0.085562	0.470300	7965.835937
7616.174643	0.085562	0.470300	8048.231445
7616.175566	0.085591	0.470300	8127.231934
7617.230821	1.135591	0.488544	529.185303
7617.231705	1.619531	0.488544	1960.850952
7617.232575	1.612965	0.488544	3364.130615
7617.233548	1.568932	0.488544	4890.701172
7617.234525	1.522526	0.488544	6378.208984
7617.235416	1.073987	0.488544	7335.131348
7617.236343	0.123340	0.488544	7449.467285
7617.237396	0.085591	0.488544	7539.594238
7617.238272	0.085562	0.488544	7614.545898
7617.239134	0.085580	0.488544	7688.315918
7617.240022	0.085580	0.488544	7764.311035
7617.241042	0.085565	0.488544	7851.587402
7617.241939	0.085635	0.488544	7928.401855
7617.242811	0.085594	0.488544	8003.040039
7617.243787	0.085649	0.488544	8086.633789
7617.244717	0.085602	0.488544	8166.243652
7618.238407	1.100566	0.471681	472.142975
7618.239397	1.618125	0.471681	2074.086670
7618.240457	1.602078	0.471681	3772.289062
7618.241362	1.558718	0.471681	5182.929199
7618.242223	1.516908	0.471681	6488.986816
7618.243328	0.661080	0.471681	7219.480469
7618.244294	0.087803	0.471681	7304.297852
7618.245160	0.085551	0.471681	7378.384766
7618.246164	0.085682	0.471681	7464.409668
7618.247202	0.085646	0.471681	7553.310059
7618.248091	0.085587	0.471681	7629.396973
7618.248953	0.085558	0.471681	7703.147949
7618.250041	0.085598	0.471681	7796.278809
7618.251014	0.085569	0.471681	7879.537109
7618.251879	0.085620	0.471681	7953.598633
7618.252893	0.085675	0.471681	8040.473145
7619.306467	1.133511	0.504186	512.346863
7619.307355	1.618850	0.504186	1949.885742
7619.308215	1.612024	0.504186	3336.226074
7619.309186	1.568046	0.504186	4858.798340
7619.310130	1.524360	0.504186	6297.794434
7619.311029	1.132782	0.504186	7316.165527
7619.311947	0.132484	0.504186	7437.786133
7619.312908	0.085521	0.504186	7519.972168
7619.313805	0.085609	0.504186	7596.763672
7619.314671	0.085587	0.504186	7670.882324
7619.315634	0.085646	0.504186	7753.359375
7619.316596	0.085569	0.504186	7835.676758
7619.317471	0.085605	0.504186	7910.581543
7619.318374	0.085616	0.504186	7987.893066
7619.319333	0.085668	0.504186	8070.048340
7619.320252	0.085627	0.504186	8148.739746
7620.313021	1.084841	0.486433	456.718170
7620.313906	1.614902	0.486433	1885.906738
7620.314868	1.609955	0.486433	3434.683350
7620.315818	1.566343	0.486433	4922.708984
7620.316716	1.524401	0.486433	6291.620605
7620.317632	1.096758	0.486433	7296.250977
7620.318583	0.116331	0.486433	7406.881348
7620.319503	0.085481	0.486433	7485.523926
7620.320368	0.085525	0.486433	7559.502930
7620.321329	0.085547	0.486433	7641.713379
7620.322249	0.085510	0.486433	7720.382812
7620.323105	0.085587	0.486433	7793.645508
7620.324071	0.085558	0.486433	7876.294434
7620.325025	0.085565	0.486433	7957.923828
7620.325946	0.085598	0.486433	8036.759766
7620.326820	0.085613	0.486433	8111.585449
7621.382588	1.089715	0.509806	456.590790
7621.383642	1.623073	0.509806	2167.309082
7621.384522	1.607095	0.509806	3581.552246
7621.385393	1.565991	0.509806	4945.530273
7621.386318	1.522647	0.509806	6353.978516
7621.387304	0.936229	0.509806	7277.100586
7621.388229	0.100115	0.509806	7369.706543
7621.389102	0.085580	0.509806	7444.417969
7621.390105	0.085668	0.509806	7530.342773
7621.391025	0.085682	0.509806	7609.170410
7621.391951	0.085649	0.509806	7688.481934
7621.392816	0.085723	0.509806	7762.631836
7621.393854	0.085609	0.509806	7851.494141
7621.394728	0.085584	0.509806	7926.293945
7621.395600	0.085649	0.509806	8000.980469
7621.396586	0.085686	0.509806	8085.466797
7622.388669	1.088928	0.491118	460.616638
7622.389723	1.622296	0.491118	2170.516602
7622.390675	1.603905	0.491118	3697.434082
7622.391548	1.562706	0.491118	5061.676758
7622.392468	1.519105	0.491118	6459.253418
7622.393544	0.744690	0.491118	7260.540039
7622.394425	0.092406	0.491118	7341.949707
7622.395285	0.085558	0.491118	7415.529297
7622.396313	0.085715	0.491118	7503.644531
7622.397266	0.085693	0.491118	7585.310547
7622.398139	0.085616	0.491118	7660.053711
7622.399009	0.085675	0.491118	7734.590820
7622.400130	0.085649	0.491118	7830.604004
7622.401022	0.085547	0.491118	7906.911621
7622.401885	0.085576	0.491118	7980.763672
7622.402960	0.085686	0.491118	8072.875977
7623.457731	1.096329	0.519639	469.228943
7623.458686	1.615602	0.519639	2012.128662
7623.459749	1.602949	0.519639	3716.063721
7623.460666	1.559330	0.519639	5145.969238
7623.461537	1.518212	0.519639	6468.331543
7623.462589	0.740552	0.519639	7247.392090
7623.463604	0.088345	0.519639	7337.062012
7623.464487	0.085605	0.519639	7412.651855
7623.465447	0.085569	0.519639	7494.797852
7623.466507	0.085602	0.519639	7585.535645
7623.467426	0.085551	0.519639	7664.156738
7623.468288	0.085620	0.519639	7737.961426
7623.469369	0.085704	0.519639	7830.607910
7623.470363	0.085554	0.519639	7915.648926
7623.471251	0.085562	0.519639	7991.627441
7623.472236	0.085723	0.519639	8076.064453
7624.464377	1.134240	0.499638	535.361084
7624.465305	1.622128	0.499638	2040.695679
7624.466199	1.609424	0.499638	3479.520508
7624.467124	1.567079	0.499638	4929.068359
7624.468069	1.521841	0.499638	6367.208008
7624.469008	0.998983	0.499638	7305.252930
7624.469895	0.110695	0.499638	7403.438965
7624.470820	0.085514	0.499638	7482.539551
7624.471776	0.085616	0.499638	7564.388672
7624.472646	0.085594	0.499638	7638.855957
7624.473562	0.085609	0.499638	7717.273926
7624.474509	0.085573	0.499638	7798.311035
7624.475437	0.085576	0.499638	7877.725586
7624.476312	0.085664	0.499638	7952.681641
7624.477223	0.085576	0.499638	8030.641602
7624.478180	0.085587	0.499638	8112.548340
7625.533889	1.096209	0.526704	469.177277
7625.534766	1.616177	0.526704	1886.564331
7625.535631	1.613020	0.526704	3281.826660
7625.536684	1.566130	0.526704	4930.961914
7625.537583	1.524075	0.526704	6301.104980
7625.538471	1.144783	0.526704	7317.671875
7625.539441	0.133561	0.526704	7447.226074
7625.540397	0.085551	0.526704	7529.012207
7625.541318	0.085609	0.526704	7607.858398
7625.542181	0.085701	0.526704	7681.817871
7625.543213	0.085631	0.526704	7770.188965
7625.544094	0.085584	0.526704	7845.587891
7625.544959	0.085616	0.526704	7919.645996
7625.545873	0.085730	0.526704	7998.003418
7625.546858	0.085554	0.526704	8082.274414
7625.547784	0.085598	0.526704	8161.538086
7626.540987	1.082952	0.510655	458.088562
7626.542007	1.618114	0.510655	2108.564941
7626.543053	1.602217	0.510655	3784.483643
7626.543935	1.559454	0.510655	5159.922363
7626.544822	1.516402	0.510655	6504.971191
7626.545935	0.630795	0.510655	7207.045898
7626.546883	0.087828	0.510655	7290.307129
7626.547748	0.085616	0.510655	7364.365234
7626.548766	0.085653	0.510655	7451.560059
7626.549794	0.085616	0.510655	7539.573730
7626.550687	0.085605	0.510655	7616.019531
7626.551612	0.085638	0.510655	7695.234863
7626.552673	0.085701	0.510655	7786.163086
7626.553623	0.085587	0.510655	7867.470703
7626.554493	0.085587	0.510655	7941.931641
7626.555530	0.085627	0.510655	8030.727539
7627.609557	1.113475	0.532690	494.383057
7627.610422	1.616565	0.532690	1892.711670
7627.611400	1.610566	0.532690	3467.845703
7627.612303	1.567416	0.532690	4883.222168
7627.613192	1.525693	0.532690	6239.563477
7627.614106	1.145186	0.532690	7286.263184
7627.615052	0.122578	0.532690	7402.222168
7627.615981	0.085558	0.532690	7481.705566
7627.616871	0.085565	0.532690	7557.858398
7627.617788	0.085627	0.532690	7636.378906
7627.618733	0.085602	0.532690	7717.272461
7627.619657	0.085635	0.532690	7796.398926
7627.620518	0.085547	0.532690	7870.054687
7627.621487	0.085620	0.532690	7953.020508
7627.622393	0.085627	0.532690	8030.599121
7627.623305	0.085562	0.532690	8108.631348
7628.614591	1.100801	0.512162	473.344330
7628.615470	1.616100	0.512162	1893.896118
7628.616430	1.610559	0.512162	3440.032715
7628.617374	1.567159	0.512162	4919.431152
7628.618306	1.523738	0.512162	6339.554687
7628.619180	1.136591	0.512162	7332.935059
7628.620112	0.121978	0.512162	7446.618164
7628.621053	0.085584	0.512162	7527.152344
7628.621975	0.085587	0.512162	7606.063477
7628.622850	0.085594	0.512162	7680.958496
7628.623820	0.085569	0.512162	7763.960449
7628.624769	0.085565	0.512162	7845.161621
7628.625657	0.085554	0.512162	7921.133789
7628.626560	0.085576	0.512162	7998.409180
7628.627467	0.085569	0.512162	8076.020020
7628.628415	0.085609	0.512162	8157.177246
7629.685686	1.095894	0.552530	461.371216
7629.686690	1.621805	0.552530	2089.663818
7629.687609	1.607776	0.552530	3567.209961
7629.688482	1.566354	0.552530	4934.636719
7629.689400	1.524221	0.552530	6333.871582
7629.690345	1.024925	0.552530	7302.426270
7629.691280	0.107131	0.552530	7402.594238
7629.692173	0.085562	0.552530	7479.000488
7629.693079	0.085631	0.552530	7556.582031
7629.694028	0.085616	0.552530	7637.832031
7629.694954	0.085631	0.552530	7717.126465
7629.695824	0.085642	0.552530	7791.635254
7629.696797	0.085587	0.552530	7874.911621
7629.697739	0.085620	0.552530	7955.565918
7629.698623	0.085638	0.552530	8031.270508
7629.699491	0.085540	0.552530	8105.519043
7630.692413	1.196001	0.527752	664.976562
7630.693336	1.624885	0.527752	2164.745605
7630.694252	1.604905	0.527752	3634.838379
7630.695133	1.562666	0.527752	5011.546875
7630.696157	1.515981	0.527752	6563.912109
7630.697057	0.867217	0.527752	7344.407227
7630.697933	0.098676	0.527752	7430.847168
7630.698897	0.085616	0.527752	7513.381348
7630.699860	0.085554	0.527752	7595.770020
7630.700780	0.085543	0.527752	7674.469727
7630.701646	0.085627	0.527752	7748.623047
7630.702674	0.085580	0.527752	7836.599121
7630.703554	0.085554	0.527752	7911.886719
7630.704421	0.085547	0.527752	7986.055664
7630.705302	0.085620	0.527752	8061.486816
7630.706336	0.085510	0.527752	8149.904297
7631.760824	1.098622	0.547233	462.519806
7631.761926	1.623728	0.547233	2251.868164
7631.762908	1.599899	0.547233	3822.968750
7631.763799	1.557989	0.547233	5211.137207
7631.764807	1.511836	0.547233	6735.067871
7631.765874	0.509960	0.547233	7279.194824
7631.766739	0.087305	0.547233	7354.713379
7631.767626	0.085609	0.547233	7430.648437
7631.768718	0.085734	0.547233	7524.269531
7631.769681	0.085536	0.547233	7606.640625
7631.770550	0.085598	0.547233	7681.025391
7631.771549	0.085759	0.547233	7766.698730
7631.772591	0.085646	0.547233	7855.941406
7631.773475	0.085551	0.547233	7931.567871
7631.774390	0.085642	0.547233	8009.930176
7631.775439	0.085576	0.547233	8099.699707
7632.766389	1.096641	0.521584	459.492401
7632.767371	1.621040	0.521584	2051.353516
7632.768306	1.607648	0.521584	3554.503906
7632.769192	1.566350	0.521584	4942.290039
7632.770102	1.523716	0.521584	6328.871582
7632.771073	1.010709	0.521584	7310.270508
7632.772000	0.107919	0.521584	7410.311035
7632.772865	0.085518	0.521584	7484.283691
7632.773837	0.085547	0.521584	7567.435059
7632.774759	0.085518	0.521584	7646.282227
7632.775663	0.085547	0.521584	7723.616699
7632.776537	0.085540	0.521584	7798.378418
7632.777500	0.085485	0.521584	7880.700195
7632.778445	0.085474	0.521584	7961.472656
7632.779336	0.085576	0.521584	8037.721191
7632.780248	0.085609	0.521584	8115.796875
7633.836514	1.105906	0.563600	506.504852
7633.837433	1.621432	0.563600	1996.600708
7633.838323	1.610438	0.563600	3429.890625
7633.839275	1.566222	0.563600	4920.934082
7633.840221	1.522244	0.563600	6360.976562
7633.841156	1.014653	0.563600	7309.677246
7633.842020	0.114976	0.563600	7409.016113
7633.842978	0.085562	0.563600	7490.983887
7633.843887	0.085507	0.563600	7568.709473
7633.844801	0.085529	0.563600	7646.882812
7633.845665	0.085580	0.563600	7720.823730
7633.846627	0.085562	0.563600	7803.133789
7633.847579	0.085514	0.563600	7884.542969
7633.848468	0.085591	0.563600	7960.633301
7633.849374	0.085587	0.563600	8038.175293
7633.850329	0.085492	0.563600	8119.820312
7634.843577	1.083336	0.540912	453.917877
7634.844490	1.614324	0.540912	1927.795410
7634.845574	1.604597	0.540912	3667.178711
7634.846476	1.561809	0.540912	5075.930664
7634.847346	1.521021	0.540912	6399.218750
7634.848392	0.814259	0.540912	7250.933594
7634.849369	0.090901	0.540912	7339.743652
7634.850242	0.085624	0.540912	7414.493164
7634.851133	0.085631	0.540912	7490.790527
7634.852207	0.085638	0.540912	7582.766113
7634.853092	0.085532	0.540912	7658.461914
7634.853949	0.085584	0.540912	7731.807129
7634.855018	0.085653	0.540912	7823.370117
7634.855971	0.085558	0.540912	7904.906738
7634.856843	0.085660	0.540912	7979.602539
7634.857707	0.085569	0.540912	8053.534180
7635.912190	1.153594	0.567491	565.260864
7635.913069	1.620751	0.567491	1989.900757
7635.914010	1.608446	0.567491	3503.448730
7635.915083	1.558239	0.567491	5175.438477
7635.916036	1.514125	0.567491	6618.399414
7635.916909	0.845940	0.567491	7356.904785
7635.917964	0.090663	0.567491	7452.554199
7635.918967	0.085573	0.567491	7538.383301
7635.919857	0.085547	0.567491	7614.520020
7635.920800	0.085671	0.567491	7695.308105
7635.921838	0.085642	0.567491	7784.204590
7635.922763	0.085587	0.567491	7863.372559
7635.923622	0.085598	0.567491	7936.901367
7635.924671	0.085664	0.567491	8026.763184
7635.925683	0.085558	0.567491	8113.347656
7635.926559	0.085580	0.567491	8188.315430
7636.919272	1.127545	0.550794	509.650452
7636.920219	1.621344	0.550794	2045.063232
7636.921149	1.608259	0.550794	3540.744141
7636.922017	1.566105	0.550794	4900.123047
7636.922982	1.521350	0.550794	6368.225586
7636.923954	0.948962	0.550794	7290.617187
7636.924850	0.102935	0.550794	7382.846680
7636.925766	0.085565	0.550794	7461.224609
7636.926717	0.085510	0.550794	7542.544922
7636.927642	0.085492	0.550794	7621.625000
7636.928530	0.085580	0.550794	7697.620117
7636.929462	0.085594	0.550794	7777.394043
7636.930412	0.085470	0.550794	7858.590332
7636.931285	0.085521	0.550794	7933.250488
7636.932190	0.085620	0.550794	8010.736816
7636.933156	0.085525	0.550794	8093.354004
7637.987259	1.086705	0.585574	458.589661
7637.988249	1.617037	0.585574	2059.456787
7637.989190	1.606586	0.585574	3571.253906
7637.990110	1.564025	0.585574	5010.156738
7637.990986	1.522181	0.585574	6343.587891
7637.992049	0.849771	0.585574	7246.894043
7637.992944	0.097013	0.585574	7333.720703
7637.993811	0.085551	0.585574	7407.893066
7637.994756	0.085697	0.585574	7488.876953
7637.995743	0.085605	0.585574	7573.369629
7637.996654	0.085671	0.585574	7651.416016
7637.997513	0.085580	0.585574	7724.929199
7637.998579	0.085679	0.585574	7816.262695
7637.999461	0.085664	0.585574	7891.818359
7638.000330	0.085642	0.585574	7966.241211
7638.001185	0.085704	0.585574	8039.518555
7638.994954	1.166071	0.562653	585.367432
7638.995870	1.623256	0.562653	2072.269531
7638.996740	1.608300	0.562653	3471.490234
7638.997829	1.558872	0.562653	5169.101562
7638.998821	1.512231	0.562653	6669.235352
7638.999715	0.794074	0.562653	7379.137207
7639.000713	0.093724	0.562653	7472.674316
7639.001749	0.085594	0.562653	7561.350098
7639.002645	0.085591	0.562653	7638.039551
7639.003505	0.085536	0.562653	7711.600586
7639.004593	0.085609	0.562653	7804.743164
7639.005552	0.085576	0.562653	7886.810547
7639.006420	0.085605	0.562653	7961.116211
7639.007419	0.085635	0.562653	8046.665527
7639.008478	0.085580	0.562653	8137.294434
7639.009364	0.085554	0.562653	8213.095703
7640.063460	1.107744	0.586158	504.023560
7640.064366	1.619894	0.586158	1971.647339
7640.065290	1.609717	0.586158	3459.025635
7640.066158	1.569086	0.586158	4820.992187
7640.067214	1.519878	0.586158	6425.983398
7640.068268	0.775869	0.586158	7243.749512
7640.069166	0.092706	0.586158	7327.000000
7640.070022	0.085554	0.586158	7400.234375
7640.071112	0.085624	0.586158	7493.564453
7640.072103	0.085532	0.586158	7578.326660
7640.072980	0.085562	0.586158	7653.364258
7640.073987	0.085660	0.586158	7739.624512
7640.075040	0.085540	0.586158	7829.697754
7640.075907	0.085616	0.586158	7903.927246
7640.076795	0.085587	0.586158	7979.928711
7640.077880	0.085602	0.586158	8072.806641
7641.069540	1.119481	0.559430	512.722412
7641.070434	1.619623	0.559430	1960.665161
7641.071307	1.611636	0.559430	3367.623047
7641.072284	1.567515	0.559430	4899.084961
7641.073205	1.523159	0.559430	6301.914551
7641.074135	1.080700	0.559430	7306.965332
7641.074997	0.124490	0.559430	7414.275391
7641.075983	0.085455	0.559430	7498.534180
7641.076931	0.085569	0.559430	7579.653320
7641.077816	0.085562	0.559430	7655.375488
7641.078719	0.085543	0.559430	7732.621094
7641.079636	0.085635	0.559430	7811.147949
7641.080575	0.085543	0.559430	7891.473145
7641.081462	0.085543	0.559430	7967.350098
7641.082365	0.085631	0.559430	8044.674805
7641.083318	0.085558	0.559430	8126.211426
7642.138175	1.202439	0.597586	651.721924
7642.139056	1.623051	0.597586	2081.629395
7642.139921	1.609142	0.597586	3473.537109
7642.140799	1.565918	0.597586	4848.413086
7642.141873	1.517710	0.597586	6478.433594
7642.142780	0.934010	0.597586	7325.580566
7642.143653	0.104282	0.597586	7416.619141
7642.144641	0.085605	0.597586	7501.197266
7642.145572	0.085598	0.597586	7580.889160
7642.146487	0.085609	0.597586	7659.221680
7642.147349	0.085679	0.597586	7733.076660
7642.148377	0.085605	0.597586	7821.079102
7642.149256	0.085675	0.597586	7896.387695
7642.150121	0.085547	0.597586	7970.385742
7642.151083	0.085631	0.597586	8052.762695
7642.152032	0.085602	0.597586	8133.999023
7643.146777	1.157303	0.579048	599.483215
7643.147836	1.625317	0.579048	2320.694336
7643.148763	1.599888	0.579048	3803.790283
7643.149635	1.557425	0.579048	5161.865234
7643.150726	1.508170	0.579048	6807.278809
7643.151724	0.459027	0.579048	7265.387695
7643.152612	0.087103	0.579048	7342.735352
7643.153598	0.085756	0.579048	7427.290527
7643.154652	0.085576	0.579048	7517.487793
7643.155557	0.085569	0.579048	7594.927734
7643.156419	0.085627	0.579048	7668.738770
7643.157516	0.085715	0.579048	7762.768555
7643.158471	0.085631	0.579048	7844.546387
7643.159347	0.085591	0.579048	7919.523926
7643.160359	0.085605	0.579048	8006.156738
7643.161405	0.085558	0.579048	8095.650391
7644.213718	1.127168	0.601023	499.335388
7644.214594	1.617396	0.601023	1916.174561
7644.215530	1.610500	0.601023	3423.603027
7644.216483	1.566625	0.601023	4916.596680
7644.217412	1.523401	0.601023	6331.835937
7644.218279	1.131288	0.601023	7312.662598
7644.219224	0.123428	0.601023	7429.301758
7644.220165	0.085554	0.601023	7509.808105
7644.221067	0.085576	0.601023	7586.998047
7644.221941	0.085514	0.601023	7661.737305
7644.222897	0.085591	0.601023	7743.562012
7644.223842	0.085598	0.601023	7824.452148
7644.224729	0.085580	0.601023	7900.361328
7644.225641	0.085609	0.601023	7978.437012
7644.226599	0.085562	0.601023	8060.404785
7644.227525	0.085543	0.601023	8139.617676
7645.221835	1.104738	0.576172	479.456085
7645.222709	1.616111	0.576172	1891.936890
7645.223573	1.613456	0.576172	3285.962646
7645.224634	1.565870	0.576172	4947.351074
7645.225536	1.523291	0.576172	6321.359375
7645.226421	1.128204	0.576172	7319.820312
7645.227354	0.133129	0.576172	7444.029297
7645.228346	0.085573	0.576172	7528.916992
7645.229264	0.085532	0.576172	7607.435547
7645.230125	0.085616	0.576172	7681.151367
7645.231140	0.085646	0.576172	7768.082031
7645.232035	0.085591	0.576172	7844.686035
7645.232960	0.085594	0.576172	7923.860840
7645.233826	0.085605	0.576172	7997.995117
7645.234865	0.085569	0.576172	8086.901367
7645.235755	0.085529	0.576172	8163.021973
7646.289345	1.094550	0.615331	468.467194
7646.290338	1.617001	0.615331	2074.148926
7646.291357	1.602502	0.615331	3707.098877
7646.292251	1.560520	0.615331	5102.204102
7646.293119	1.518739	0.615331	6420.469727
7646.294214	0.734985	0.615331	7225.278809
7646.295140	0.090227	0.615331	7308.829102
7646.296020	0.085613	0.615331	7384.168457
7646.297003	0.085679	0.615331	7468.390625
7646.297993	0.085602	0.615331	7553.136230
7646.298878	0.085649	0.615331	7628.936035
7646.299739	0.085690	0.615331	7702.714844
7646.300812	0.085675	0.615331	7794.644043
7646.301735	0.085584	0.615331	7873.637695
7646.302602	0.085642	0.615331	7947.889160
7646.303560	0.085690	0.615331	8029.979980
7647.297479	1.095121	0.593276	474.187286
7647.298343	1.615356	0.593276	1869.855225
7647.299316	1.610336	0.593276	3436.711914
7647.300261	1.566464	0.593276	4917.020020
7647.301159	1.524027	0.593276	6285.596191
7647.302092	1.095220	0.593276	7307.436035
7647.303009	0.114397	0.593276	7412.337891
7647.303948	0.085565	0.593276	7492.683594
7647.304840	0.085646	0.593276	7569.079590
7647.305761	0.085573	0.593276	7647.892090
7647.306711	0.085613	0.593276	7729.224121
7647.307637	0.085671	0.593276	7808.555664
7647.308495	0.085635	0.593276	7882.030273
7647.309434	0.085624	0.593276	7962.431152
7647.310384	0.085602	0.593276	8043.752930
7647.311290	0.085638	0.593276	8121.341309
7648.365562	1.134152	0.632271	543.258667
7648.366491	1.622172	0.632271	2050.256104
7648.367380	1.608999	0.632271	3480.656250
7648.368303	1.566405	0.632271	4926.448242
7648.369262	1.521053	0.632271	6385.138672
7648.370208	0.971103	0.632271	7303.802734
7648.371095	0.107102	0.632271	7398.802246
7648.372027	0.085558	0.632271	7478.541992
7648.372974	0.085536	0.632271	7559.544434
7648.373855	0.085686	0.632271	7635.033691
7648.374772	0.085660	0.632271	7713.584473
7648.375725	0.085605	0.632271	7795.166504
7648.376655	0.085569	0.632271	7874.745605
7648.377532	0.085631	0.632271	7949.844238
7648.378451	0.085576	0.632271	8028.488770
7648.379409	0.085518	0.632271	8110.414551
7649.373111	1.089833	0.598126	457.729767
7649.374169	1.623450	0.598126	2175.339600
7649.375073	1.605579	0.598126	3626.782715
7649.375956	1.563787	0.598126	5007.606445
7649.376880	1.520380	0.598126	6412.437500
7649.377896	0.874578	0.598126	7301.008301
7649.378806	0.096658	0.598126	7388.966797
7649.379681	0.085609	0.598126	7463.875000
7649.380695	0.085708	0.598126	7550.782715
7649.381572	0.085631	0.598126	7625.881348
7649.382484	0.085565	0.598126	7703.916992
7649.383358	0.085715	0.598126	7778.832031
7649.384398	0.085591	0.598126	7867.846680
7649.385288	0.085631	0.598126	7944.058594
7649.386165	0.085642	0.598126	8019.166504
7649.387141	0.085638	0.598126	8102.749512
7650.440705	1.150280	0.634329	564.787292
7650.441584	1.620524	0.634329	1989.227539
7650.442448	1.611482	0.634329	3381.547852
7650.443494	1.563336	0.634329	5016.797852
7650.444469	1.517827	0.634329	6496.679199
7650.445354	0.959114	0.634329	7345.494629
7650.446246	0.107930	0.634329	7441.768066
7650.447330	0.085649	0.634329	7534.611816
7650.448211	0.085463	0.634329	7609.904297
7650.449068	0.085587	0.634329	7683.252441
7650.450114	0.085682	0.634329	7772.875977
7650.451074	0.085558	0.634329	7855.011719
7650.451971	0.085620	0.634329	7931.812988
7650.452848	0.085594	0.634329	8006.879395
7650.453939	0.085638	0.634329	8100.311035
7650.454843	0.085507	0.634329	8177.608887
7651.449884	1.182902	0.609768	598.548218
7651.450901	1.625632	0.609768	2251.816406
7651.451778	1.604084	0.609768	3658.598389
7651.452764	1.557488	0.609768	5194.281250
7651.453839	1.508705	0.609768	6816.139160
7651.454741	0.596799	0.609768	7354.452148
7651.455606	0.089465	0.609768	7431.839844
7651.456713	0.085734	0.609768	7526.747070
7651.457683	0.085525	0.609768	7609.706055
7651.458549	0.085591	0.609768	7683.827637
7651.459581	0.085591	0.609768	7772.157227
7651.460627	0.085540	0.609768	7861.631836
7651.461517	0.085602	0.609768	7937.817383
7651.462438	0.085602	0.609768	8016.656738
7651.463497	0.085668	0.609768	8107.378906
7651.464456	0.085616	0.609768	8189.484863
7652.516334	1.124344	0.647562	519.447144
7652.517232	1.619220	0.647562	1973.506714
7652.518171	1.609523	0.647562	3484.848633
7652.519087	1.564988	0.647562	4918.377441
7652.520007	1.522577	0.647562	6319.148437
7652.520886	1.084929	0.647562	7272.801270
7652.521859	0.113357	0.647562	7383.097656
7652.522808	0.085496	0.647562	7464.232910
7652.523694	0.085598	0.647562	7540.072754
7652.524598	0.085584	0.647562	7617.440430
7652.525544	0.085587	0.647562	7698.405762
7652.526461	0.085547	0.647562	7776.852051
7652.527321	0.085540	0.647562	7850.416016
7652.528299	0.085580	0.647562	7934.113281
7652.529246	0.085635	0.647562	8015.209473
7652.530149	0.085591	0.647562	8092.498047
7653.524450	1.142033	0.616943	511.630554
7653.525382	1.620707	0.616943	2022.129395
7653.526264	1.610171	0.616943	3442.300293
7653.527225	1.566354	0.616943	4947.566406
7653.528169	1.522156	0.616943	6384.481445
7653.529053	1.070189	0.616943	7330.528809
7653.529937	0.122128	0.616943	7438.489746
7653.530930	0.085459	0.616943	7523.350586
7653.531844	0.085532	0.616943	7601.526855
7653.532729	0.085543	0.616943	7677.232422
7653.533657	0.085594	0.616943	7756.664062
7653.534601	0.085602	0.616943	7837.472168
7653.535528	0.085543	0.616943	7916.770508
7653.536405	0.085594	0.616943	7991.836914
7653.537327	0.085551	0.616943	8070.714355
7653.538284	0.085620	0.616943	8152.652832
7654.592447	1.091968	0.654833	465.178284
7654.593447	1.617733	0.654833	2082.911377
7654.594343	1.607153	0.654833	3522.920898
7654.595264	1.564406	0.654833	4963.738281
7654.596148	1.521951	0.654833	6309.142578
7654.597189	0.911334	0.654833	7257.841309
7654.598079	0.100690	0.654833	7347.455078
7654.598954	0.085587	0.654833	7422.343750
7654.599929	0.085671	0.654833	7505.873535
7654.600879	0.085562	0.654833	7587.157227
7654.601795	0.085646	0.654833	7665.608887
7654.602657	0.085690	0.654833	7739.473633
7654.603694	0.085598	0.654833	7828.238770
7654.604576	0.085594	0.654833	7903.732910
7654.605441	0.085573	0.654833	7977.752930
7654.606363	0.085675	0.654833	8056.745117
7655.600598	1.106569	0.631122	490.209869
7655.601468	1.616407	0.631122	1896.484253
7655.602479	1.607783	0.631122	3521.953125
7655.603531	1.559290	0.631122	5162.325684
7655.604408	1.517197	0.631122	6492.907715
7655.605308	0.892844	0.631122	7296.467773
7655.606396	0.090985	0.631122	7395.459473
7655.607346	0.085580	0.631122	7476.760254
7655.608217	0.085624	0.631122	7551.338379
7655.609237	0.085726	0.631122	7638.779297
7655.610265	0.085510	0.631122	7726.683594
7655.611154	0.085616	0.631122	7802.796387
7655.612096	0.085671	0.631122	7883.499023
7655.613140	0.085660	0.631122	7972.928711
7655.614078	0.085565	0.631122	8053.188965
7655.614941	0.085594	0.631122	8127.057129
7656.668142	1.127538	0.663015	535.580505
7656.669074	1.621135	0.663015	2046.478516
7656.670004	1.607560	0.663015	3541.509277
7656.670871	1.566398	0.663015	4899.576172
7656.671811	1.522383	0.663015	6330.616211
7656.672755	1.005743	0.663015	7280.038086
7656.673671	0.108281	0.663015	7379.223633
7656.674546	0.085521	0.663015	7454.054687
7656.675616	0.085671	0.663015	7545.723145
7656.676658	0.085631	0.663015	7634.950684
7656.677553	0.085562	0.663015	7711.528320
7656.678414	0.085620	0.663015	7785.247070
7656.679525	0.085723	0.663015	7880.484863
7656.680488	0.085529	0.663015	7962.848633
7656.681357	0.085627	0.663015	8037.258789
7656.682413	0.085657	0.663015	8127.712402
7657.675734	1.105657	0.630083	488.700287
7657.676596	1.616019	0.630083	1881.708862
7657.677557	1.609922	0.630083	3428.843750
7657.678489	1.566533	0.630083	4888.852539
7657.679378	1.524935	0.630083	6244.520020
7657.680263	1.144142	0.630083	7257.085449
7657.681225	0.120905	0.630083	7373.395508
7657.682178	0.085558	0.630083	7454.932129
7657.683062	0.085616	0.630083	7530.617187
7657.683980	0.085540	0.630083	7609.142578
7657.684937	0.085609	0.630083	7691.070312
7657.685851	0.085525	0.630083	7769.240234
7657.686711	0.085584	0.630083	7842.842285
7657.687626	0.085598	0.630083	7921.164551
7657.688583	0.085547	0.630083	8003.032715
7657.689467	0.085540	0.630083	8078.649902
7658.743307	1.172022	0.668501	573.118530
7658.744195	1.620044	0.668501	2011.717651
7658.745122	1.608439	0.668501	3502.740234
7658.745993	1.567086	0.668501	4867.672363
7658.746956	1.521976	0.668501	6333.335449
7658.747901	1.025870	0.668501	7302.783203
7658.748782	0.112687	0.668501	7402.060059
7658.749654	0.085474	0.668501	7476.593262
7658.750640	0.085569	0.668501	7560.964355
7658.751558	0.085510	0.668501	7639.462891
7658.752426	0.085540	0.668501	7713.711426
7658.753455	0.085496	0.668501	7801.686523
7658.754335	0.085510	0.668501	7876.935547
7658.755256	0.085521	0.668501	7955.700684
7658.756118	0.085525	0.668501	8029.423340
7658.757092	0.085448	0.668501	8112.649902
7659.751866	1.107114	0.647828	469.416412
7659.752967	1.623809	0.647828	2257.229736
7659.753857	1.603297	0.647828	3684.164062
7659.754737	1.562205	0.647828	5058.904297
7659.755720	1.516476	0.647828	6549.600098
7659.756720	0.741665	0.647828	7291.265137
7659.757611	0.092175	0.647828	7373.393555
7659.758471	0.085631	0.647828	7447.036133
7659.759581	0.085712	0.647828	7542.176270
7659.760499	0.085547	0.647828	7620.708496
7659.761373	0.085620	0.647828	7695.540527
7659.762355	0.085693	0.647828	7779.691406
7659.763353	0.085584	0.647828	7865.103516
7659.764241	0.085584	0.647828	7941.101562
7659.765101	0.085646	0.647828	8014.756836
7659.766180	0.085649	0.647828	8107.172363
7660.819926	1.126252	0.689690	506.813599
7660.820809	1.617978	0.689690	1935.488525
7660.821794	1.607791	0.689690	3519.162109
7660.822853	1.558773	0.689690	5169.902832
7660.823759	1.516033	0.689690	6543.428711
7660.824630	0.893284	0.689690	7321.479004
7660.825728	0.090992	0.689690	7421.388672
7660.826684	0.085635	0.689690	7503.255371
7660.827566	0.085613	0.689690	7578.765625
7660.828587	0.085646	0.689690	7666.209961
7660.829636	0.085723	0.689690	7756.132812
7660.830516	0.085646	0.689690	7831.500977
7660.831396	0.085620	0.689690	7906.846680
7660.832468	0.085719	0.689690	7998.737305
7660.833419	0.085562	0.689690	8080.106445
7660.834277	0.085532	0.689690	8153.493164
7661.827558	1.144460	0.656972	532.174133
7661.828495	1.621501	0.656972	2051.520996
7661.829379	1.609501	0.656972	3474.319824
7661.830321	1.565603	0.656972	4949.118164
7661.831280	1.521262	0.656972	6408.008789
7661.832216	1.017004	0.656972	7359.924805
7661.833075	0.115331	0.656972	7458.994141
7661.833989	0.085496	0.656972	7537.137207
7661.834951	0.085627	0.656972	7619.510742
7661.835841	0.085620	0.656972	7695.712402
7661.836922	0.085631	0.656972	7788.279785
7661.837877	0.085580	0.656972	7870.008301
7661.838801	0.085613	0.656972	7949.114746
7661.839667	0.085521	0.656972	8023.176270
7661.840626	0.085620	0.656972	8105.286133
7661.841556	0.085576	0.656972	8184.872070
7662.895546	1.087112	0.700333	458.761200
7662.896534	1.620337	0.700333	2059.654053
7662.897453	1.607395	0.700333	3536.850098
7662.898339	1.565706	0.700333	4924.065430
7662.899210	1.523405	0.700333	6250.950684
7662.900211	1.022322	0.700333	7274.294922
7662.901148	0.109138	0.700333	7376.557617
7662.902042	0.085605	0.700333	7453.088867
7662.902952	0.085547	0.700333	7530.936523
7662.903889	0.085664	0.700333	7611.203613
7662.904809	0.085638	0.700333	7689.991211
7662.905693	0.085598	0.700333	7765.660156
7662.906617	0.085598	0.700333	7844.752930
7662.907567	0.085591	0.700333	7926.064453
7662.908432	0.085587	0.700333	8000.097168
7662.909389	0.085580	0.700333	8081.997070
7663.904189	1.088730	0.674330	463.799164
7663.905170	1.615855	0.674330	2048.952393
7663.906193	1.602942	0.674330	3688.761963
7663.907088	1.560938	0.674330	5085.800781
7663.907953	1.519647	0.674330	6400.295898
7663.909034	0.764934	0.674330	7227.189453
7663.909973	0.090641	0.674330	7312.301270
7663.910847	0.085507	0.674330	7387.034180
7663.911802	0.085624	0.674330	7468.804687
7663.912808	0.085631	0.674330	7554.949707
7663.913686	0.085576	0.674330	7630.085449
7663.914543	0.085668	0.674330	7703.502930
7663.915597	0.085587	0.674330	7793.711914
7663.916525	0.085547	0.674330	7873.099609
7663.917396	0.085616	0.674330	7947.671387
7663.918324	0.085613	0.674330	8027.120117
7664.970680	1.089529	0.709389	458.691620
7664.971714	1.621260	0.709389	2135.074219
7664.972738	1.600045	0.709389	3773.520508
7664.973640	1.557788	0.709389	5178.645508
7664.974613	1.512938	0.709389	6650.734375
7664.975675	0.561969	0.709389	7247.545410
7664.976600	0.087330	0.709389	7328.326172
7664.977466	0.085532	0.709389	7402.396973
7664.978551	0.085642	0.709389	7495.318848
7664.979532	0.085492	0.709389	7579.186523
7664.980425	0.085576	0.709389	7655.605957
7664.981403	0.085664	0.709389	7739.385254
7664.982456	0.085627	0.709389	7829.550781
7664.983360	0.085514	0.709389	7906.855469
7664.984221	0.085576	0.709389	7980.536621
7664.985304	0.085624	0.709389	8073.267090
7665.979326	1.092198	0.671232	465.276550
7665.980240	1.615869	0.671232	1942.180908
7665.981200	1.608798	0.671232	3486.626709
7665.982129	1.565248	0.671232	4940.742187
7665.982992	1.524408	0.671232	6256.306152
7665.983974	1.056998	0.671232	7294.278320
7665.984911	0.113690	0.671232	7400.806152
7665.985808	0.085521	0.671232	7477.518555
7665.986664	0.085573	0.671232	7550.768555
7665.987607	0.085540	0.671232	7631.432129
7665.988548	0.085565	0.671232	7711.948730
7665.989440	0.085569	0.671232	7788.276367
7665.990351	0.085598	0.671232	7866.256348
7665.991310	0.085576	0.671232	7948.323730
7665.992213	0.085540	0.671232	8025.565918
7665.993091	0.085521	0.671232	8100.653320
7667.046369	1.124154	0.718464	509.241760
7667.047308	1.621099	0.718464	2031.453369
7667.048230	1.607897	0.718464	3513.934082
7667.049097	1.566365	0.718464	4871.972168
7667.050076	1.521475	0.718464	6361.496094
7667.051031	0.990681	0.718464	7307.596680
7667.051897	0.109867	0.718464	7402.741211
7667.052808	0.085518	0.718464	7480.647949
7667.053760	0.085565	0.718464	7562.105957
7667.054679	0.085594	0.718464	7640.767090
7667.055558	0.085624	0.718464	7716.030273
7667.056522	0.085569	0.718464	7798.518555
7667.057474	0.085569	0.718464	7879.979980
7667.058401	0.085591	0.718464	7959.322754
7667.059262	0.085594	0.718464	8033.019531
7667.060223	0.085554	0.718464	8115.237305
7668.055581	1.171370	0.686681	596.227173
7668.056472	1.621886	0.686681	2041.327515
7668.057350	1.609226	0.686681	3454.228027
7668.058255	1.565900	0.686681	4871.367187
7668.059283	1.518318	0.686681	6432.198242
7668.060208	0.947164	0.686681	7308.325195
7668.061081	0.106143	0.686681	7400.987793
7668.062079	0.085587	0.686681	7486.403809
7668.062986	0.085580	0.686681	7564.024902
7668.063911	0.085569	0.686681	7643.176270
7668.064770	0.085660	0.686681	7716.758789
7668.065807	0.085580	0.686681	7805.504883
7668.066700	0.085576	0.686681	7881.924316
7668.067615	0.085580	0.686681	7960.229980
7668.068477	0.085558	0.686681	8033.980957
7668.069468	0.085565	0.686681	8118.775879
7669.122109	1.215623	0.719818	664.945557
7669.123017	1.624230	0.719818	2139.746094
7669.123893	1.606912	0.719818	3547.400879
7669.124793	1.563585	0.719818	4954.627930
7669.125830	1.516417	0.719818	6527.152344
7669.126732	0.903647	0.719818	7342.242187
7669.127607	0.101342	0.719818	7430.916016
7669.128606	0.085576	0.719818	7516.406738
7669.129537	0.085638	0.719818	7596.136230
7669.130468	0.085624	0.719818	7675.852051
7669.131329	0.085679	0.719818	7749.621582
7669.132353	0.085507	0.719818	7837.180176
7669.133226	0.085668	0.719818	7911.968262
7669.134102	0.085631	0.719818	7986.980957
7669.135064	0.085631	0.719818	8069.357910
7669.136011	0.085540	0.719818	8150.363770
7670.130700	1.139960	0.682628	576.819580
7670.131764	1.625116	0.682628	2305.942871
7670.132704	1.599309	0.682628	3809.293457
7670.133574	1.557195	0.682628	5164.052734
7670.134661	1.507489	0.682628	6802.693359
7670.135665	0.448803	0.682628	7253.291016
7670.136559	0.086906	0.682628	7330.984375
7670.137542	0.085708	0.682628	7415.235352
7670.138578	0.085620	0.682628	7503.937988
7670.139487	0.085591	0.682628	7581.740234
7670.140349	0.085580	0.682628	7655.510254
7670.141421	0.085679	0.682628	7747.357910
7670.142413	0.085569	0.682628	7832.242187
7670.143289	0.085569	0.682628	7907.200684
7670.144301	0.085671	0.682628	7993.899902
7670.145356	0.085675	0.682628	8084.287109
7671.197650	1.108004	0.737542	487.521851
7671.198569	1.618861	0.737542	1975.255127
7671.199433	1.610585	0.737542	3366.800293
7671.200386	1.566526	0.737542	4859.699219
7671.201345	1.522471	0.737542	6319.748535
7671.202246	1.101555	0.737542	7312.250000
7671.203152	0.126196	0.737542	7426.583984
7671.204107	0.085547	0.737542	7508.281250
7671.205028	0.085602	0.737542	7587.120605
7671.205902	0.085540	0.737542	7661.882324
7671.206880	0.085642	0.737542	7745.640137
7671.207817	0.085587	0.737542	7825.835449
7671.208739	0.085609	0.737542	7904.767090
7671.209599	0.085653	0.737542	7978.428711
7671.210563	0.085562	0.737542	8060.910156
7671.211497	0.085576	0.737542	8140.838379
7672.206811	1.138268	0.708575	514.497070
7672.207707	1.618920	0.708575	1965.049194
7672.208575	1.610878	0.708575	3363.291016
7672.209554	1.566277	0.708575	4896.676270
7672.210510	1.522138	0.708575	6351.839844
7672.211397	1.101790	0.708575	7329.126953
7672.212310	0.125698	0.708575	7443.889648
7672.213261	0.085503	0.708575	7525.203125
7672.214187	0.085587	0.708575	7604.457031
7672.215062	0.085543	0.708575	7679.307129
7672.215988	0.085573	0.708575	7758.547363
7672.216927	0.085492	0.708575	7838.824219
7672.217845	0.085616	0.708575	7917.419922
7672.218705	0.085594	0.708575	7991.031250
7672.219665	0.085573	0.708575	8073.180664
7672.220616	0.085605	0.708575	8154.591309
7673.273310	1.124063	0.750340	517.068787
7673.274202	1.619257	0.750340	1961.445801
7673.275166	1.608896	0.750340	3512.421875
7673.276063	1.565991	0.750340	4917.116211
7673.276986	1.523306	0.750340	6323.127441
7673.277866	1.134481	0.750340	7321.470703
7673.278835	0.116023	0.750340	7433.896973
7673.279770	0.085554	0.750340	7513.890137
7673.280645	0.085540	0.750340	7588.737305
7673.281642	0.085616	0.750340	7674.096680
7673.282542	0.085540	0.750340	7751.082520
7673.283465	0.085594	0.750340	7830.086426
7673.284339	0.085609	0.750340	7904.908691
7673.285281	0.085547	0.750340	7985.493652
7673.286233	0.085594	0.750340	8066.979492
7673.287153	0.085594	0.750340	8145.726562
7674.282449	1.128256	0.719060	502.073730
7674.283328	1.617341	0.719060	1923.716675
7674.284334	1.607007	0.719060	3540.365479
7674.285330	1.560308	0.719060	5094.431641
7674.286223	1.518860	0.719060	6450.773437
7674.287093	0.983416	0.719060	7306.344727
7674.288201	0.093860	0.719060	7410.341309
7674.289104	0.085485	0.719060	7487.533691
7674.289976	0.085562	0.719060	7562.143555
7674.290986	0.085756	0.719060	7648.756836
7674.291974	0.085562	0.719060	7733.291504
7674.292863	0.085543	0.719060	7809.339355
7674.293718	0.085653	0.719060	7882.572754
7674.294820	0.085631	0.719060	7976.938477
7674.295715	0.085573	0.719060	8053.525879
7674.296580	0.085624	0.719060	8127.590332
7675.349432	1.085339	0.765426	458.013184
7675.350429	1.617858	0.765426	2071.017334
7675.351494	1.601140	0.765426	3776.231445
7675.352391	1.557817	0.765426	5173.593750
7675.353256	1.515597	0.765426	6484.584961
7675.354357	0.660549	0.765426	7211.849609
7675.355306	0.088381	0.765426	7295.723633
7675.356165	0.085551	0.765426	7369.211426
7675.357215	0.085752	0.765426	7459.250977
7675.358253	0.085627	0.765426	7548.132324
7675.359135	0.085594	0.765426	7623.626465
7675.360045	0.085573	0.765426	7701.497559
7675.361118	0.085668	0.765426	7793.418945
7675.362058	0.085529	0.765426	7873.815918
7675.362915	0.085562	0.765426	7947.142090
7675.363921	0.085715	0.765426	8033.371582
7676.358082	1.090975	0.727387	463.664551
7676.359023	1.616495	0.727387	1984.786621
7676.359999	1.607040	0.727387	3553.257324
7676.360939	1.563241	0.727387	5022.703613
7676.361802	1.521943	0.727387	6336.140625
7676.362748	1.020176	0.727387	7301.227051
7676.363672	0.105659	0.727387	7398.855957
7676.364589	0.085551	0.727387	7477.305664
7676.365452	0.085580	0.727387	7551.161133
7676.366414	0.085605	0.727387	7633.513672
7676.367357	0.085521	0.727387	7714.160156
7676.368245	0.085646	0.727387	7790.213379
7676.369159	0.085591	0.727387	7868.443359
7676.370115	0.085536	0.727387	7950.215820
7676.371003	0.085558	0.727387	8026.191406
7676.371906	0.085642	0.727387	8103.526367
7677.425155	1.151627	0.776681	571.207092
7677.426093	1.621637	0.776681	2092.302490
7677.427017	1.605740	0.776681	3576.005859
7677.427895	1.564237	0.776681	4949.406250
7677.428851	1.520449	0.776681	6402.956055
7677.429811	0.948406	0.776681	7313.425781
7677.430705	0.101587	0.776681	7404.244629
7677.431568	0.085518	0.776681	7478.046387
7677.432530	0.085620	0.776681	7560.413086
7677.433479	0.085635	0.776681	7641.680664
7677.434372	0.085584	0.776681	7718.106934
7677.435294	0.085653	0.776681	7797.079102
7677.436250	0.085569	0.776681	7878.882812
7677.437115	0.085624	0.776681	7952.947266
7677.437984	0.085598	0.776681	8027.332031
7677.438944	0.085594	0.776681	8109.502930
7678.435273	1.103060	0.739194	479.831207
7678.436146	1.615657	0.739194	1890.299561
7678.437006	1.612328	0.739194	3276.901367
7678.438075	1.565420	0.739194	4950.334961
7678.438953	1.523328	0.739194	6287.816406
7678.439827	1.162236	0.739194	7303.610840
7678.440803	0.138300	0.739194	7438.591309
7678.441742	0.085587	0.739194	7518.957520
7678.442648	0.085565	0.739194	7596.479492
7678.443526	0.085613	0.739194	7671.647461
7678.444560	0.085635	0.739194	7760.193848
7678.445456	0.085569	0.739194	7836.863770
7678.446326	0.085616	0.739194	7911.350098
7678.447217	0.085675	0.739194	7987.686523
7678.448245	0.085558	0.739194	8075.640137
7678.449128	0.085558	0.739194	8151.187500
7679.499710	1.097875	0.777451	466.596771
7679.500769	1.622003	0.777451	2184.298096
7679.501707	1.603004	0.777451	3687.916016
7679.502583	1.561787	0.777451	5056.041504
7679.503542	1.517457	0.777451	6511.283203
7679.504587	0.725691	0.777451	7269.630371
7679.505478	0.091685	0.777451	7351.321289
7679.506334	0.085602	0.777451	7424.596680
7679.507366	0.085679	0.777451	7513.017090
7679.508317	0.085584	0.777451	7594.407227
7679.509194	0.085565	0.777451	7669.447754
7679.510132	0.085653	0.777451	7749.790527
7679.511180	0.085616	0.777451	7839.516602
7679.512071	0.085569	0.777451	7915.758301
7679.512935	0.085565	0.777451	7989.686523
7679.513965	0.085609	0.777451	8077.863770
7680.510433	1.126490	0.748713	508.047211
7680.511302	1.617349	0.748713	1913.523193
7680.512218	1.610640	0.748713	3388.869141
7680.513172	1.566683	0.748713	4883.485352
7680.514099	1.523115	0.748713	6295.413086
7680.514985	1.142878	0.748713	7308.003418
7680.515908	0.121553	0.748713	7420.196777
7680.516859	0.085562	0.748713	7501.565918
7680.517781	0.085624	0.748713	7580.511230
7680.518641	0.085627	0.748713	7654.150879
7680.519610	0.085660	0.748713	7737.155762
7680.520560	0.085649	0.748713	7818.522461
7680.521448	0.085573	0.748713	7894.510742
7680.522331	0.085646	0.748713	7970.135742
7680.523265	0.085587	0.748713	8050.074219
7680.524211	0.085587	0.748713	8131.039551
7681.575916	1.122700	0.794084	518.687500
7681.576800	1.617733	0.794084	1948.763550
7681.577670	1.611292	0.794084	3350.587158
7681.578627	1.567361	0.794084	4850.551270
7681.579554	1.522980	0.794084	6262.353516
7681.580490	1.097043	0.794084	7289.186035
7681.581355	0.126973	0.794084	7399.017578
7681.582323	0.085562	0.794084	7481.841309
7681.583271	0.085518	0.794084	7562.912109
7681.584160	0.085649	0.794084	7639.054687
7681.585072	0.085492	0.794084	7717.023437
7681.586039	0.085514	0.794084	7799.715332
7681.586955	0.085554	0.794084	7878.083008
7681.587818	0.085620	0.794084	7951.973145
7681.588764	0.085584	0.794084	8032.935059
7681.589699	0.085569	0.794084	8112.941895
7682.585542	1.091938	0.747521	470.625488
7682.586405	1.614906	0.747521	1864.289429
7682.587336	1.611357	0.747521	3364.463135
7682.588264	1.567588	0.747521	4819.184570
7682.589190	1.524847	0.747521	6231.193359
7682.590070	1.202157	0.747521	7289.091797
7682.591013	0.137787	0.747521	7419.024902
7682.591959	0.085532	0.747521	7499.938477
7682.592853	0.085565	0.747521	7576.433594
7682.593817	0.085576	0.747521	7658.929199
7682.594753	0.085562	0.747521	7739.014648
7682.595673	0.085551	0.747521	7817.721191
7682.596539	0.085653	0.747521	7891.896973
7682.597477	0.085602	0.747521	7972.191406
7682.598424	0.085551	0.747521	8053.208008
7682.599354	0.085540	0.747521	8132.759766
7683.652537	1.087035	0.802729	459.815765
7683.653586	1.621681	0.802729	2160.958984
7683.654548	1.602374	0.802729	3702.442871
7683.655434	1.560505	0.802729	5085.050781
7683.656370	1.517249	0.802729	6505.195312
7683.657431	0.698698	0.802729	7246.513184
7683.658321	0.090912	0.802729	7327.424805
7683.659182	0.085631	0.802729	7401.153320
7683.660227	0.085752	0.802729	7490.764160
7683.661177	0.085576	0.802729	7572.061523
7683.662054	0.085616	0.802729	7647.146973
7683.662953	0.085620	0.802729	7724.119629
7683.664037	0.085587	0.802729	7816.895996
7683.664907	0.085616	0.802729	7891.382324
7683.665770	0.085653	0.802729	7965.300781
7683.666813	0.085708	0.802729	8054.694336
7684.661692	1.086786	0.775123	458.623657
7684.662664	1.615485	0.775123	2028.874634
7684.663720	1.601407	0.775123	3719.960937
7684.664645	1.557828	0.775123	5160.952148
7684.665516	1.515817	0.775123	6481.228516
7684.666615	0.662498	0.775123	7209.313477
7684.667608	0.087404	0.775123	7296.104980
7684.668499	0.085569	0.775123	7372.346680
7684.669482	0.085620	0.775123	7456.511230
7684.670541	0.085690	0.775123	7547.256836
7684.671439	0.085569	0.775123	7624.097656
7684.672307	0.085605	0.775123	7698.403320
7684.673408	0.085679	0.775123	7792.735352
7684.674379	0.085565	0.775123	7875.819336
7684.675244	0.085631	0.775123	7949.890137
7684.676304	0.085642	0.775123	8040.670898
7685.728257	1.131548	0.819825	556.721497
7685.729199	1.621479	0.819825	2084.155029
7685.730109	1.606124	0.819825	3545.728027
7685.730992	1.564691	0.819825	4927.350586
7685.731939	1.521075	0.819825	6367.809082
7685.732874	0.978523	0.819825	7282.728027
7685.733798	0.103378	0.819825	7378.249023
7685.734659	0.085496	0.819825	7451.860840
7685.735621	0.085638	0.819825	7534.245117
7685.736564	0.085642	0.819825	7615.005371
7685.737460	0.085635	0.819825	7691.733887
7685.738369	0.085540	0.819825	7769.489258
7685.739295	0.085569	0.819825	7848.726074
7685.740209	0.085594	0.819825	7926.959473
7685.741099	0.085627	0.819825	8003.167969
7685.742009	0.085580	0.819825	8081.045410
7686.737414	1.183608	0.774498	577.600891
7686.738295	1.619689	0.774498	2004.546631
7686.739223	1.608343	0.774498	3497.089355
7686.740090	1.566515	0.774498	4855.257812
7686.741089	1.521548	0.774498	6375.284180
7686.742002	1.025585	0.774498	7311.643066
7686.742891	0.112808	0.774498	7411.929199
7686.743810	0.085554	0.774498	7490.553711
7686.744758	0.085554	0.774498	7571.659180
7686.745682	0.085602	0.774498	7650.755371
7686.746556	0.085565	0.774498	7725.539551
7686.747505	0.085580	0.774498	7806.754883
7686.748451	0.085562	0.774498	7887.696289
7686.749376	0.085649	0.774498	7966.921875
7686.750235	0.085580	0.774498	8040.435059
7686.751199	0.085580	0.774498	8122.934082
7687.803477	1.232098	0.822407	699.831848
7687.804390	1.624178	0.822407	2182.706787
7687.805260	1.605421	0.822407	3579.423096
7687.806260	1.558824	0.822407	5138.247559
7687.807255	1.512166	0.822407	6642.852539
7687.808149	0.794604	0.822407	7353.229004
7687.809022	0.094863	0.822407	7436.044434
7687.810012	0.085620	0.822407	7520.808105
7687.810950	0.085525	0.822407	7601.030273
7687.811862	0.085547	0.822407	7679.048828
7687.812728	0.085529	0.822407	7753.116699
7687.813759	0.085609	0.822407	7841.379883
7687.814640	0.085510	0.822407	7916.714355
7687.815514	0.085613	0.822407	7991.540039
7687.816452	0.085635	0.822407	8071.865234
7687.817424	0.085496	0.822407	8154.966797
7688.813578	1.167598	0.787623	580.296021
7688.814459	1.620399	0.787623	2007.867798
7688.815374	1.607366	0.787623	3478.607422
7688.816452	1.558081	0.787623	5158.218750
7688.817405	1.513927	0.787623	6600.991211
7688.818277	0.859878	0.787623	7350.804687
7688.819318	0.091520	0.787623	7446.076660
7688.820341	0.085627	0.787623	7533.673340
7688.821228	0.085605	0.787623	7609.605469
7688.822179	0.085627	0.787623	7691.037109
7688.823227	0.085697	0.787623	7780.847656
7688.824144	0.085605	0.787623	7859.347656
7688.825012	0.085547	0.787623	7933.602539
7688.826076	0.085594	0.787623	8024.675293
7688.827070	0.085576	0.787623	8109.737793
7688.827962	0.085591	0.787623	8186.084961
7689.879494	1.092001	0.838081	468.468323
7689.880365	1.614712	0.838081	1874.882324
7689.881313	1.610405	0.838081	3401.546387
7689.882250	1.566130	0.838081	4869.010742
7689.883168	1.523741	0.838081	6267.805664
7689.884036	1.133357	0.838081	7251.559570
7689.885012	0.124398	0.838081	7372.972168
7689.885934	0.085492	0.838081	7451.795898
7689.886795	0.085554	0.838081	7525.458008
7689.887764	0.085540	0.838081	7608.345703
7689.888657	0.085624	0.838081	7684.807617
7689.889580	0.085536	0.838081	7763.757324
7689.890451	0.085565	0.838081	7838.284668
7689.891420	0.085573	0.838081	7921.204590
7689.892364	0.085573	0.838081	8001.984863
7689.893253	0.085584	0.838081	8078.068359
7690.889679	1.112571	0.795079	496.206573
7690.890648	1.621033	0.795079	2066.987305
7690.891576	1.606582	0.795079	3557.895508
7690.892443	1.564742	0.795079	4914.527344
7690.893487	1.517534	0.795079	6498.833008
7690.894369	0.957609	0.795079	7343.443848
7690.895245	0.106080	0.795079	7436.370117
7690.896200	0.085620	0.795079	7518.137207
7690.897149	0.085540	0.795079	7599.314453
7690.898059	0.085584	0.795079	7677.195312
7690.898940	0.085616	0.795079	7752.623535
7690.899975	0.085558	0.795079	7841.175781
7690.900864	0.085540	0.795079	7917.220215
7690.901777	0.085624	0.795079	7995.394531
7690.902643	0.085573	0.795079	8069.500488
7690.903620	0.085591	0.795079	8153.122559
7691.955755	1.172259	0.850303	631.847839
7691.956764	1.625490	0.850303	2271.966797
7691.957667	1.601587	0.850303	3718.199707
7691.958535	1.559315	0.850303	5071.685547
7691.959620	1.510064	0.850303	6710.104492
7691.960558	0.642030	0.850303	7312.328613
7691.961431	0.090007	0.850303	7390.904785
7691.962394	0.085613	0.850303	7473.350098
7691.963408	0.085609	0.850303	7560.157715
7691.964298	0.085562	0.850303	7636.307617
7691.965160	0.085620	0.850303	7710.112305
7691.966231	0.085734	0.850303	7801.933105
7691.967152	0.085562	0.850303	7880.735352
7691.968027	0.085584	0.850303	7955.621094
7691.968989	0.085635	0.850303	8038.001953
7691.970031	0.085620	0.850303	8127.218262
7692.964798	1.115757	0.801863	475.312378
7692.965909	1.623208	0.801863	2278.696289
7692.966867	1.599789	0.801863	3811.293945
7692.967728	1.558652	0.801863	5153.293945
7692.968777	1.510452	0.801863	6737.757812
7692.969824	0.528640	0.801863	7291.244141
7692.970695	0.087480	0.801863	7367.439453
7692.971614	0.085543	0.801863	7446.053711
7692.972683	0.085642	0.801863	7537.604980
7692.973625	0.085536	0.801863	7618.179687
7692.974492	0.085657	0.801863	7692.443848
7692.975508	0.085624	0.801863	7779.437500
7692.976546	0.085646	0.801863	7868.337891
7692.977437	0.085580	0.801863	7944.589355
7692.978365	0.085631	0.801863	8024.055176
7692.979425	0.085697	0.801863	8114.894043
7694.031369	1.177203	0.858090	575.652405
7694.032302	1.621681	0.858090	2088.680664
7694.033176	1.608124	0.858090	3494.180908
7694.034086	1.564871	0.858090	4918.212891
7694.035038	1.520658	0.858090	6365.879395
7694.035974	1.011057	0.858090	7312.229004
7694.036849	0.112225	0.858090	7410.426270
7694.037813	0.085565	0.858090	7492.911133
7694.038758	0.085657	0.858090	7573.856934
7694.039657	0.085638	0.858090	7650.845703
7694.040520	0.085551	0.858090	7724.675781
7694.041493	0.085558	0.858090	7807.923828
7694.042418	0.085551	0.858090	7887.058105
7694.043277	0.085587	0.858090	7960.577637
7694.044242	0.085624	0.858090	8043.204590
7694.045173	0.085547	0.858090	8122.848633
