time (s)	coil I (A)	last det (V)	int current (uC)
7846.521335	1.167612	0.666974	544.107361
7846.522216	1.621318	0.666974	1972.488770
7846.523079	1.612006	0.666974	3363.649414
7846.524218	1.560879	0.666974	5141.490234
7846.525144	1.517369	0.666974	6546.574219
7846.526035	0.919742	0.666974	7366.064941
7846.527029	0.100865	0.666974	7466.325195
7846.528021	0.085521	0.666974	7551.162109
7846.528905	0.085558	0.666974	7626.795410
7846.529766	0.085584	0.666974	7700.482910
7846.530834	0.085591	0.666974	7791.894043
7846.531747	0.085525	0.666974	7869.978516
7846.532617	0.085562	0.666974	7944.416992
7846.533583	0.085598	0.666974	8027.104980
7846.534588	0.085580	0.666974	8113.112793
7846.535474	0.085602	0.666974	8188.956055
7847.588298	1.103386	0.725139	476.662872
7847.589159	1.616341	0.725139	1868.332886
7847.590223	1.607457	0.725139	3578.667480
7847.591233	1.559905	0.725139	5154.171387
7847.592116	1.518896	0.725139	6495.356934
7847.593127	0.802584	0.725139	7306.769531
7847.594165	0.089846	0.725139	7400.029785
7847.595077	0.085532	0.725139	7478.035156
7847.595938	0.085613	0.725139	7551.747559
7847.596992	0.085609	0.725139	7641.979492
7847.597983	0.085525	0.725139	7726.734863
7847.598872	0.085540	0.725139	7802.779297
7847.599859	0.085598	0.725139	7887.264648
7847.600904	0.085620	0.725139	7976.737793
7847.601800	0.085573	0.725139	8053.410645
7847.602659	0.085569	0.725139	8126.914062
7848.597432	1.091232	0.680026	460.499786
7848.598405	1.621051	0.680026	2037.782471
7848.599339	1.609241	0.680026	3540.813232
7848.600221	1.567606	0.680026	4923.441895
7848.601134	1.525928	0.680026	6316.613770
7848.602094	1.031353	0.680026	7306.711914
7848.603026	0.109325	0.680026	7408.602539
7848.603900	0.085565	0.680026	7483.386719
7848.604813	0.085616	0.680026	7561.554687
7848.605772	0.085616	0.680026	7643.660645
7848.606688	0.085609	0.680026	7722.078613
7848.607564	0.085594	0.680026	7797.059570
7848.608537	0.085620	0.680026	7880.368164
7848.609486	0.085540	0.680026	7961.545410
7848.610374	0.085624	0.680026	8037.579102
7848.611278	0.085642	0.680026	8114.999512
7849.663462	1.115746	0.732970	524.400574
7849.664489	1.626244	0.732970	2194.553223
7849.665387	1.605985	0.732970	3636.727783
7849.666261	1.564812	0.732970	5004.373535
7849.667280	1.518904	0.732970	6552.136719
7849.668175	0.876445	0.732970	7336.555176
7849.669088	0.097262	0.732970	7425.355469
7849.669961	0.085587	0.732970	7500.073242
7849.671001	0.085558	0.732970	7589.053223
7849.671901	0.085664	0.732970	7666.150879
7849.672778	0.085554	0.732970	7741.182129
7849.673763	0.085624	0.732970	7825.521484
7849.674708	0.085565	0.732970	7906.380371
7849.675621	0.085580	0.732970	7984.514648
7849.676485	0.085565	0.732970	8058.442871
7849.677519	0.085598	0.732970	8146.951172
7850.672112	1.152894	0.685464	549.930542
7850.673040	1.623065	0.685464	2056.135010
7850.673964	1.609083	0.685464	3542.927734
7850.674846	1.567028	0.685464	4925.045898
7850.675820	1.522244	0.685464	6407.710937
7850.676791	0.943304	0.685464	7323.659668
7850.677678	0.102155	0.685464	7414.270508
7850.678597	0.085551	0.685464	7492.891602
7850.679530	0.085591	0.685464	7572.748047
7850.680466	0.085679	0.685464	7652.943359
7850.681343	0.085591	0.685464	7728.006348
7850.682254	0.085682	0.685464	7806.062988
7850.683197	0.085620	0.685464	7886.802734
7850.684124	0.085616	0.685464	7966.168945
7850.684998	0.085613	0.685464	8040.994629
7850.685963	0.085642	0.685464	8123.639160
7851.740601	1.100175	0.751682	465.373840
7851.741589	1.621472	0.751682	2067.388428
7851.742500	1.608688	0.751682	3532.902832
7851.743387	1.567478	0.751682	4923.255859
7851.744304	1.524144	0.751682	6320.895996
7851.745278	1.011423	0.751682	7306.022461
7851.746199	0.106447	0.751682	7404.059570
7851.747077	0.085551	0.751682	7479.172852
7851.748025	0.085598	0.751682	7560.319824
7851.748954	0.085646	0.751682	7639.884766
7851.749887	0.085624	0.751682	7719.771973
7851.750746	0.085620	0.751682	7793.319824
7851.751700	0.085646	0.751682	7875.025879
7851.752629	0.085584	0.751682	7954.532715
7851.753519	0.085646	0.751682	8030.757324
7851.754426	0.085635	0.751682	8108.428223
7852.748733	1.088178	0.698943	459.210937
7852.749742	1.618564	0.698943	2092.342529
7852.750746	1.604041	0.698943	3702.799316
7852.751632	1.562135	0.698943	5086.851074
7852.752494	1.520413	0.698943	6397.446777
7852.753588	0.773437	0.698943	7243.587402
7852.754499	0.091729	0.698943	7327.151855
7852.755364	0.085474	0.698943	7401.086426
7852.756339	0.085624	0.698943	7484.569824
7852.757343	0.085499	0.698943	7570.411133
7852.758233	0.085605	0.698943	7646.600098
7852.759098	0.085499	0.698943	7720.557129
7852.760173	0.085682	0.698943	7812.665527
7852.761099	0.085518	0.698943	7891.854980
7852.761976	0.085613	0.698943	7966.937500
7852.762941	0.085613	0.698943	8049.553711
7853.815785	1.132405	0.759823	523.171021
7853.816675	1.620476	0.759823	1965.394653
7853.817541	1.612573	0.759823	3361.883057
7853.818515	1.568624	0.759823	4889.723145
7853.819463	1.524408	0.759823	6334.861816
7853.820364	1.097256	0.759823	7323.489258
7853.821233	0.126866	0.759823	7433.736328
7853.822194	0.085631	0.759823	7516.027832
7853.823138	0.085642	0.759823	7596.874023
7853.824008	0.085594	0.759823	7671.341309
7853.824940	0.085525	0.759823	7751.050293
7853.825868	0.085605	0.759823	7830.492187
7853.826792	0.085602	0.759823	7909.588379
7853.827671	0.085646	0.759823	7984.871094
7853.828617	0.085573	0.759823	8065.822754
7853.829531	0.085690	0.759823	8144.143066
7854.824940	1.110681	0.714359	518.688110
7854.825829	1.619901	0.714359	1958.780151
7854.826727	1.611281	0.714359	3405.709961
7854.827691	1.566940	0.714359	4916.239746
7854.828592	1.524379	0.714359	6289.705078
7854.829481	1.101240	0.714359	7268.707520
7854.830495	0.106340	0.714359	7376.536621
7854.831393	0.085605	0.714359	7453.410156
7854.832312	0.085594	0.714359	7532.071289
7854.833174	0.085609	0.714359	7605.866211
7854.834169	0.085620	0.714359	7691.058105
7854.835094	0.085580	0.714359	7770.219238
7854.835958	0.085569	0.714359	7844.150879
7854.836976	0.085584	0.714359	7931.274902
7854.837848	0.085580	0.714359	8005.900391
7854.838760	0.085584	0.714359	8083.952637
7855.890407	1.144647	0.767058	524.248352
7855.891288	1.619755	0.767058	1951.252197
7855.892290	1.608241	0.767058	3562.709473
7855.893346	1.558707	0.767058	5208.704590
7855.894249	1.516252	0.767058	6577.880371
7855.895116	0.872406	0.767058	7334.256348
7855.896194	0.091432	0.767058	7432.819824
7855.897180	0.085576	0.767058	7517.197754
7855.898060	0.085682	0.767058	7592.598145
7855.899060	0.085682	0.767058	7678.280762
7855.900109	0.085660	0.767058	7768.138672
7855.900980	0.085547	0.767058	7842.649902
7855.901841	0.085584	0.767058	7916.337402
7855.902899	0.085730	0.767058	8007.039551
7855.903875	0.085587	0.767058	8090.572754
7855.904751	0.085562	0.767058	8165.524414
7856.900028	1.086119	0.715157	459.428497
7856.900992	1.619934	0.715157	2021.044922
7856.901930	1.608263	0.715157	3529.595459
7856.902837	1.565695	0.715157	4949.680664
7856.903719	1.523976	0.715157	6293.827148
7856.904687	1.024977	0.715157	7286.004883
7856.905641	0.107146	0.715157	7388.222168
7856.906531	0.085496	0.715157	7464.313477
7856.907439	0.085540	0.715157	7541.983398
7856.908366	0.085551	0.715157	7621.288574
7856.909289	0.085598	0.715157	7700.295898
7856.910150	0.085529	0.715157	7773.936035
7856.911120	0.085565	0.715157	7856.934082
7856.912079	0.085488	0.715157	7938.917480
7856.912949	0.085554	0.715157	8013.349609
7856.913858	0.085584	0.715157	8091.145020
7857.966622	1.177500	0.760282	595.814941
7857.967511	1.622329	0.760282	2038.065552
7857.968388	1.610453	0.760282	3450.432617
7857.969311	1.567438	0.760282	4897.177734
7857.970314	1.520632	0.760282	6422.372070
7857.971216	1.006571	0.760282	7330.299316
7857.972079	0.113221	0.760282	7428.009277
7857.973068	0.085573	0.760282	7512.640625
7857.973980	0.085594	0.760282	7590.702637
7857.974897	0.085591	0.760282	7669.189453
7857.975762	0.085584	0.760282	7743.219238
7857.976798	0.085605	0.760282	7831.906738
7857.977685	0.085635	0.760282	7907.864746
7857.978566	0.085635	0.760282	7983.309082
7857.979543	0.085635	0.760282	8066.974121
7857.980491	0.085605	0.760282	8148.127930
7858.975760	1.167111	0.723270	589.390869
7858.976759	1.626548	0.723270	2214.312012
7858.977650	1.605685	0.723270	3644.977051
7858.978636	1.560201	0.723270	5183.335937
7858.979674	1.511272	0.723270	6752.036133
7858.980581	0.699796	0.723270	7386.750977
7858.981439	0.092194	0.723270	7465.853027
7858.982527	0.085686	0.723270	7559.079590
7858.983509	0.085594	0.723270	7643.133301
7858.984388	0.085605	0.723270	7718.380371
7858.985398	0.085664	0.723270	7804.900879
7858.986443	0.085723	0.723270	7894.480957
7858.987327	0.085646	0.723270	7970.191895
7858.988185	0.085616	0.723270	8043.650879
7858.989281	0.085708	0.723270	8137.586914
7858.990250	0.085580	0.723270	8220.513672
7860.042185	1.101588	0.788311	475.886078
7860.043052	1.616382	0.788311	1877.289185
7860.044041	1.610621	0.788311	3470.193848
7860.044988	1.566343	0.788311	4953.520508
7860.045885	1.523833	0.788311	6320.398437
7860.046768	1.091514	0.788311	7284.205078
7860.047729	0.117462	0.788311	7397.086426
7860.048679	0.085565	0.788311	7478.373535
7860.049556	0.085584	0.788311	7553.430176
7860.050457	0.085569	0.788311	7630.527832
7860.051402	0.085540	0.788311	7711.362793
7860.052328	0.085609	0.788311	7790.636719
7860.053206	0.085558	0.788311	7865.756348
7860.054155	0.085631	0.788311	7947.020508
7860.055085	0.085525	0.788311	8026.558594
7860.056006	0.085580	0.788311	8105.377441
7861.051843	1.088946	0.737357	461.713287
7861.052882	1.623083	0.737357	2148.096924
7861.053781	1.607406	0.737357	3593.154785
7861.054657	1.565936	0.737357	4964.915039
7861.055519	1.523265	0.737357	6277.969727
7861.056593	0.906764	0.737357	7251.833984
7861.057479	0.101539	0.737357	7341.797852
7861.058343	0.085594	0.737357	7415.751465
7861.059319	0.085679	0.737357	7499.374023
7861.060254	0.085605	0.737357	7579.415039
7861.061176	0.085584	0.737357	7658.323242
7861.062047	0.085631	0.737357	7732.907715
7861.063066	0.085569	0.737357	7820.102539
7861.063962	0.085569	0.737357	7896.772461
7861.064838	0.085660	0.737357	7971.811035
7861.065781	0.085679	0.737357	8052.605957
7862.117817	1.104694	0.795301	466.180725
7862.118916	1.623834	0.795301	2250.774658
7862.119906	1.599924	0.795301	3834.699707
7862.120791	1.558176	0.795301	5213.685547
7862.121773	1.512253	0.795301	6698.718262
7862.122853	0.535356	0.795301	7276.903320
7862.123724	0.087323	0.795301	7352.961426
7862.124590	0.085697	0.795301	7427.174805
7862.125682	0.085690	0.795301	7520.748047
7862.126647	0.085580	0.795301	7603.332520
7862.127513	0.085609	0.795301	7677.470215
7862.128526	0.085693	0.795301	7764.277344
7862.129569	0.085554	0.795301	7853.510254
7862.130459	0.085613	0.795301	7929.705566
7862.131380	0.085657	0.795301	8008.595215
7862.132445	0.085609	0.795301	8099.769043
7863.127530	1.121030	0.743516	520.158081
7863.128413	1.619960	0.743516	1950.582520
7863.129286	1.612789	0.743516	3358.547607
7863.130198	1.569521	0.743516	4789.951172
7863.131162	1.524928	0.743516	6259.981445
7863.132095	1.110729	0.743516	7296.291504
7863.132955	0.130477	0.743516	7408.501953
7863.133922	0.085584	0.743516	7491.261230
7863.134873	0.085609	0.743516	7572.675293
7863.135764	0.085584	0.743516	7648.930176
7863.136661	0.085558	0.743516	7725.675781
7863.137593	0.085657	0.743516	7805.507812
7863.138515	0.085554	0.743516	7884.388672
7863.139374	0.085598	0.743516	7957.917480
7863.140343	0.085565	0.743516	8040.830078
7863.141297	0.085573	0.743516	8122.466309
7864.194490	1.084585	0.805685	457.694855
7864.195409	1.615250	0.805685	1942.109741
7864.196400	1.608340	0.805685	3535.974609
7864.197327	1.564995	0.805685	4986.725098
7864.198197	1.524254	0.805685	6312.826172
7864.199260	0.893412	0.805685	7262.522949
7864.200144	0.100031	0.805685	7350.949707
7864.201005	0.085503	0.805685	7424.567871
7864.201867	0.085712	0.805685	7498.451172
7864.202923	0.085554	0.805685	7588.796387
7864.203813	0.085536	0.805685	7664.923340
7864.204692	0.085591	0.805685	7740.157715
7864.205662	0.085635	0.805685	7823.223633
7864.206607	0.085627	0.805685	7904.141602
7864.207532	0.085598	0.805685	7983.319824
7864.208392	0.085646	0.805685	8056.975098
7865.203162	1.113633	0.751029	497.793854
7865.204025	1.617312	0.751029	1893.534058
7865.205088	1.606333	0.751029	3601.065918
7865.206115	1.558271	0.751029	5201.410645
7865.206988	1.517109	0.751029	6525.847168
7865.207973	0.780392	0.751029	7294.533203
7865.209036	0.089092	0.751029	7389.237793
7865.209937	0.085642	0.751029	7466.401367
7865.210801	0.085664	0.751029	7540.415039
7865.211872	0.085668	0.751029	7632.165039
7865.212860	0.085624	0.751029	7716.761230
7865.213754	0.085598	0.751029	7793.286133
7865.214735	0.085726	0.751029	7877.383789
7865.215791	0.085748	0.751029	7967.934082
7865.216689	0.085653	0.751029	8044.850586
7865.217550	0.085616	0.751029	8118.566406
7866.268616	1.099611	0.815390	476.131378
7866.269479	1.615785	0.815390	1870.553711
7866.270439	1.611720	0.815390	3417.804932
7866.271372	1.567599	0.815390	4880.375000
7866.272279	1.524979	0.815390	6263.531250
7866.273156	1.112853	0.815390	7239.502930
7866.274141	0.118231	0.815390	7355.960449
7866.275070	0.085532	0.815390	7435.419922
7866.275934	0.085547	0.815390	7509.332520
7866.276895	0.085605	0.815390	7591.599609
7866.277846	0.085602	0.815390	7673.006836
7866.278737	0.085525	0.815390	7749.209473
7866.279628	0.085598	0.815390	7825.477539
7866.280571	0.085569	0.815390	7906.168945
7866.281518	0.085609	0.815390	7987.240723
7866.282387	0.085514	0.815390	8061.552246
7867.280325	1.094495	0.762889	472.821655
7867.281192	1.616125	0.762889	1874.002441
7867.282103	1.612269	0.762889	3342.779785
7867.283057	1.568390	0.762889	4839.023437
7867.283978	1.525939	0.762889	6244.413086
7867.284850	1.169081	0.762889	7263.851562
7867.285880	0.113287	0.762889	7380.537598
7867.286768	0.085598	0.762889	7456.548828
7867.287686	0.085701	0.762889	7535.222168
7867.288545	0.085620	0.762889	7608.770020
7867.289533	0.085565	0.762889	7693.308594
7867.290454	0.085646	0.762889	7772.188477
7867.291319	0.085726	0.762889	7846.341797
7867.292354	0.085657	0.762889	7934.996582
7867.293234	0.085638	0.762889	8010.358398
7867.294150	0.085631	0.762889	8088.796387
7868.344862	1.174827	0.827680	596.811951
7868.345871	1.626258	0.827680	2237.706787
7868.346751	1.604879	0.827680	3650.000488
7868.347763	1.558077	0.827680	5226.774902
7868.348815	1.509203	0.827680	6814.456055
7868.349715	0.611078	0.827680	7364.426270
7868.350573	0.089758	0.827680	7441.438965
7868.351652	0.085723	0.827680	7533.933594
7868.352630	0.085554	0.827680	7617.605469
7868.353492	0.085609	0.827680	7691.400391
7868.354553	0.085770	0.827680	7782.402832
7868.355592	0.085616	0.827680	7871.358398
7868.356476	0.085664	0.827680	7947.085449
7868.357343	0.085715	0.827680	8021.400879
7868.358351	0.085763	0.827680	8107.850098
7868.359310	0.085620	0.827680	8189.959961
7869.355957	1.092418	0.778921	458.815643
7869.356939	1.621406	0.778921	2051.036621
7869.357872	1.608032	0.778921	3551.330566
7869.358757	1.566489	0.778921	4937.673828
7869.359690	1.523478	0.778921	6359.078613
7869.360648	1.023922	0.778921	7339.996094
7869.361551	0.108834	0.778921	7438.273437
7869.362429	0.085609	0.778921	7513.438477
7869.363418	0.085620	0.778921	7598.116699
7869.364383	0.085573	0.778921	7680.694336
7869.365303	0.085664	0.778921	7759.505371
7869.366166	0.085616	0.778921	7833.392578
7869.367137	0.085620	0.778921	7916.529785
7869.368090	0.085620	0.778921	7998.125977
7869.368980	0.085558	0.778921	8074.272461
7869.369887	0.085620	0.778921	8151.929687
7870.419958	1.122491	0.835346	527.570984
7870.420852	1.619733	0.835346	1975.612061
7870.421718	1.611866	0.835346	3371.488281
7870.422651	1.567932	0.835346	4834.369141
7870.423606	1.523181	0.835346	6289.006836
7870.424543	1.073778	0.835346	7295.136719
7870.425404	0.122889	0.835346	7400.944336
7870.426371	0.085562	0.835346	7483.682129
7870.427315	0.085605	0.835346	7564.493652
7870.428204	0.085635	0.835346	7640.623047
7870.429107	0.085631	0.835346	7717.947754
7870.430063	0.085594	0.835346	7799.775879
7870.430989	0.085620	0.835346	7879.060059
7870.431843	0.085602	0.835346	7952.164062
7870.432808	0.085627	0.835346	8034.794434
7870.433755	0.085605	0.835346	8115.862793
7871.431216	1.203640	0.777781	652.372925
7871.432229	1.627178	0.777781	2300.704102
7871.433127	1.602466	0.777781	3739.718262
7871.433995	1.559963	0.777781	5093.766602
7871.435093	1.510931	0.777781	6752.769531
7871.435998	0.670228	0.777781	7359.326172
7871.436864	0.091040	0.777781	7438.166992
7871.437865	0.085591	0.777781	7523.843262
7871.438860	0.085510	0.777781	7608.925781
7871.439739	0.085532	0.777781	7684.108398
7871.440602	0.085605	0.777781	7757.985840
7871.441672	0.085635	0.777781	7849.615234
7871.442591	0.085540	0.777781	7928.226074
7871.443466	0.085569	0.777781	8003.098633
7871.444432	0.085697	0.777781	8085.881836
7871.445448	0.085635	0.777781	8172.886719
7872.496074	1.099669	0.846134	473.957428
7872.496976	1.615712	0.846134	1931.329346
7872.498063	1.603802	0.846134	3674.662598
7872.498997	1.559396	0.846134	5131.138184
7872.499877	1.518351	0.846134	6467.287109
7872.500911	0.763912	0.846134	7257.172363
7872.501934	0.088660	0.846134	7347.871094
7872.502820	0.085631	0.846134	7423.740234
7872.503762	0.085616	0.846134	7504.391113
7872.504816	0.085649	0.846134	7594.665527
7872.505748	0.085587	0.846134	7674.432617
7872.506606	0.085620	0.846134	7747.894531
7872.507668	0.085598	0.846134	7838.799805
7872.508683	0.085576	0.846134	7925.659668
7872.509574	0.085635	0.846134	8001.960449
7872.510538	0.085745	0.846134	8084.618164
7873.506770	1.108352	0.787598	485.458191
7873.507648	1.617850	0.787598	1905.930664
7873.508540	1.612628	0.787598	3344.395020
7873.509494	1.567972	0.787598	4840.240723
7873.510454	1.523679	0.787598	6302.972656
7873.511349	1.128362	0.787598	7312.856445
7873.512265	0.128463	0.787598	7430.528809
7873.513225	0.085532	0.787598	7512.639648
7873.514142	0.085602	0.787598	7591.136719
7873.515004	0.085591	0.787598	7664.916016
7873.515950	0.085602	0.787598	7745.895508
7873.516877	0.085580	0.787598	7825.228027
7873.517801	0.085653	0.787598	7904.371582
7873.518676	0.085690	0.787598	7979.350098
7873.519641	0.085605	0.787598	8061.959473
7873.520582	0.085565	0.787598	8142.476074
7874.571187	1.090151	0.850178	455.683289
7874.572142	1.620553	0.850178	2003.311523
7874.573072	1.608805	0.850178	3499.500000
7874.573966	1.567053	0.850178	4900.445312
7874.574891	1.524697	0.850178	6310.790039
7874.575833	1.044243	0.850178	7294.466797
7874.576773	0.108347	0.850178	7396.312988
7874.577661	0.085616	0.850178	7472.340332
7874.578587	0.085609	0.850178	7551.614258
7874.579533	0.085573	0.850178	7632.565918
7874.580418	0.085613	0.850178	7708.333008
7874.581356	0.085547	0.850178	7788.576172
7874.582281	0.085569	0.850178	7867.727539
7874.583195	0.085543	0.850178	7945.914062
7874.584082	0.085521	0.850178	8021.771484
7874.585030	0.085594	0.850178	8102.915039
7875.583417	1.092759	0.800827	461.144196
7875.584495	1.623160	0.800827	2210.911133
7875.585432	1.603015	0.800827	3712.936279
7875.586311	1.561381	0.800827	5085.389648
7875.587266	1.517607	0.800827	6534.704590
7875.588309	0.714243	0.800827	7279.660156
7875.589180	0.091454	0.800827	7359.316406
7875.590047	0.085631	0.800827	7433.558594
7875.591079	0.085686	0.800827	7521.986816
7875.592029	0.085620	0.800827	7603.325684
7875.592904	0.085642	0.800827	7678.262695
7875.593833	0.085653	0.800827	7757.834473
7875.594889	0.085605	0.800827	7848.233887
7875.595782	0.085627	0.800827	7924.699219
7875.596647	0.085664	0.800827	7998.798828
7875.597676	0.085690	0.800827	8086.973633
7876.646979	1.221943	0.862046	684.288269
7876.648032	1.626269	0.862046	2396.750000
7876.648922	1.599998	0.862046	3820.747803
7876.649807	1.557045	0.862046	5198.732422
7876.650893	1.507863	0.862046	6836.270996
7876.651852	0.516237	0.862046	7331.341797
7876.652715	0.087997	0.862046	7407.283203
7876.653739	0.085602	0.862046	7494.939453
7876.654761	0.085565	0.862046	7582.387207
7876.655633	0.085584	0.862046	7657.016113
7876.656537	0.085609	0.862046	7734.406738
7876.657607	0.085591	0.862046	7825.988770
7876.658551	0.085496	0.862046	7906.696777
7876.659419	0.085536	0.862046	7980.941895
7876.660439	0.085679	0.862046	8068.333984
7876.661464	0.085558	0.862046	8156.030762
7877.659656	1.167114	0.806705	574.220215
7877.660589	1.623234	0.806705	2088.697266
7877.661463	1.609131	0.806705	3495.077637
7877.662377	1.566032	0.806705	4926.430664
7877.663339	1.521383	0.806705	6390.000977
7877.664271	0.996603	0.806705	7318.834961
7877.665147	0.110087	0.806705	7415.270996
7877.666099	0.085569	0.806705	7496.732422
7877.667024	0.085616	0.806705	7575.927734
7877.667944	0.085657	0.806705	7654.731934
7877.668805	0.085679	0.806705	7728.501465
7877.669774	0.085554	0.806705	7811.403320
7877.670717	0.085605	0.806705	7892.129395
7877.671601	0.085573	0.806705	7967.775391
7877.672481	0.085602	0.806705	8043.104980
7877.673425	0.085653	0.806705	8123.961426
7878.723552	1.135792	0.878743	522.464355
7878.724445	1.619971	0.878743	1969.098145
7878.725314	1.611522	0.878743	3369.510986
7878.726293	1.566753	0.878743	4903.362305
7878.727252	1.522467	0.878743	6363.408203
7878.728147	1.081209	0.878743	7331.089844
7878.729068	0.123508	0.878743	7444.840820
7878.730019	0.085569	0.878743	7526.216797
7878.730927	0.085620	0.878743	7603.959961
7878.731797	0.085576	0.878743	7678.411133
7878.732703	0.085584	0.878743	7755.949707
7878.733659	0.085558	0.878743	7837.743164
7878.734572	0.085584	0.878743	7915.880859
7878.735444	0.085584	0.878743	7990.509766
7878.736424	0.085605	0.878743	8074.403320
7878.737373	0.085573	0.878743	8155.611816
7879.734715	1.090100	0.815027	464.382660
7879.735637	1.615243	0.815027	1953.636719
7879.736594	1.609156	0.815027	3493.599609
7879.737538	1.565006	0.815027	4970.965332
7879.738418	1.523551	0.815027	6311.690430
7879.739366	1.016158	0.815027	7275.008789
7879.740323	0.104114	0.815027	7374.645508
7879.741246	0.085551	0.815027	7453.608887
7879.742106	0.085602	0.815027	7527.226562
7879.743063	0.085594	0.815027	7609.140625
7879.743988	0.085584	0.815027	7688.305176
7879.744852	0.085573	0.815027	7762.239746
7879.745774	0.085565	0.815027	7841.130859
7879.746707	0.085587	0.815027	7920.983887
7879.747626	0.085613	0.815027	7999.662109
7879.748495	0.085638	0.815027	8074.082031
7880.799241	1.144160	0.881535	561.782654
7880.800127	1.620934	0.881535	1997.929932
7880.800995	1.611024	0.881535	3396.298828
7880.801913	1.569144	0.881535	4836.773437
7880.802871	1.524338	0.881535	6297.089844
7880.803802	1.079828	0.881535	7302.409668
7880.804680	0.120754	0.881535	7408.432129
7880.805642	0.085540	0.881535	7490.721191
7880.806598	0.085642	0.881535	7572.595215
7880.807525	0.085620	0.881535	7651.964844
7880.808387	0.085605	0.881535	7725.756836
7880.809355	0.085624	0.881535	7808.640625
7880.810293	0.085540	0.881535	7888.876953
7880.811159	0.085580	0.881535	7962.989258
7880.812029	0.085547	0.881535	8037.415039
7880.813001	0.085605	0.881535	8120.623535
7881.810868	1.084314	0.824176	454.327576
7881.811814	1.618202	0.824176	1985.146729
7881.812752	1.609109	0.824176	3494.490723
7881.813646	1.567126	0.824176	4895.501953
7881.814568	1.525060	0.824176	6301.606934
7881.815498	1.062074	0.824176	7289.335937
7881.816443	0.113961	0.824176	7397.029297
7881.817329	0.085649	0.824176	7472.914551
7881.818259	0.085642	0.824176	7552.561523
7881.819209	0.085635	0.824176	7633.914551
7881.820117	0.085605	0.824176	7711.644531
7881.820990	0.085664	0.824176	7786.429199
7881.821933	0.085605	0.824176	7867.155273
7881.822854	0.085616	0.824176	7946.007812
7881.823776	0.085613	0.824176	8024.942871
7881.824635	0.085613	0.824176	8098.484375
7882.874840	1.121012	0.894365	491.003235
7882.875719	1.617162	0.894365	1912.488525
7882.876592	1.613185	0.894365	3320.798828
7882.877579	1.568514	0.894365	4868.922852
7882.878504	1.524613	0.894365	6279.189941
7882.879413	1.117035	0.894365	7294.574707
7882.880290	0.130554	0.894365	7409.070801
7882.881246	0.085455	0.894365	7490.766113
7882.882171	0.085529	0.894365	7569.879883
7882.883060	0.085668	0.894365	7646.038574
7882.883925	0.085569	0.894365	7720.055664
7882.884887	0.085638	0.894365	7802.439941
7882.885833	0.085536	0.894365	7883.356934
7882.886718	0.085649	0.894365	7959.156738
7882.887645	0.085521	0.894365	8038.435059
7882.888597	0.085569	0.894365	8119.896484
7883.886010	1.085874	0.828546	457.152985
7883.886977	1.616466	0.828546	2020.275635
7883.887927	1.607205	0.828546	3547.120117
7883.888854	1.563984	0.828546	4996.933594
7883.889726	1.522632	0.828546	6324.668457
7883.890771	0.895118	0.828546	7260.067383
7883.891653	0.101202	0.828546	7349.328125
7883.892524	0.085580	0.828546	7423.868164
7883.893469	0.085690	0.828546	7504.844727
7883.894449	0.085587	0.828546	7588.720215
7883.895351	0.085638	0.828546	7665.966309
7883.896229	0.085616	0.828546	7741.137695
7883.897246	0.085748	0.828546	7828.343750
7883.898163	0.085653	0.828546	7906.887695
7883.899050	0.085576	0.828546	7982.793945
7883.899908	0.085686	0.828546	8056.312500
7884.950989	1.095740	0.905511	478.838257
7884.951861	1.616462	0.905511	1888.393433
7884.952724	1.611940	0.905511	3279.497314
7884.953845	1.563409	0.905511	5032.079102
7884.954733	1.521233	0.905511	6382.933594
7884.955601	1.085050	0.905511	7324.756836
7884.956670	0.100386	0.905511	7432.069336
7884.957648	0.085529	0.905511	7515.716309
7884.958523	0.085609	0.905511	7590.624512
7884.959385	0.085602	0.905511	7664.413086
7884.960502	0.085660	0.905511	7760.095703
7884.961402	0.085638	0.905511	7837.170410
7884.962266	0.085635	0.905511	7911.158691
7884.963365	0.085741	0.905511	8005.388184
7884.964340	0.085642	0.905511	8088.889160
7884.965216	0.085602	0.905511	8163.876465
7885.962828	1.226360	0.847959	686.761536
7885.963871	1.626409	0.847959	2383.105713
7885.964754	1.600459	0.847959	3796.311035
7885.965694	1.556169	0.847959	5259.110352
7885.966763	1.506742	0.847959	6869.817383
7885.967712	0.492133	0.847959	7336.851074
7885.968570	0.087631	0.847959	7412.038086
7885.969614	0.085697	0.847959	7501.505859
7885.970629	0.085547	0.847959	7588.335937
7885.971522	0.085616	0.847959	7664.791504
7885.972471	0.085649	0.847959	7746.072754
7885.973523	0.085616	0.847959	7836.141113
7885.974446	0.085609	0.847959	7915.158203
7885.975314	0.085605	0.847959	7989.463867
7885.976383	0.085668	0.847959	8081.042480
7885.977377	0.085580	0.847959	8166.108887
7887.026201	1.172787	0.916996	589.911804
7887.027226	1.625819	0.916996	2256.376465
7887.028109	1.603755	0.916996	3672.492187
7887.029074	1.558905	0.916996	5176.835449
7887.030136	1.509459	0.916996	6779.881348
7887.031057	0.620153	0.916996	7351.041992
7887.031913	0.089780	0.916996	7427.894043
7887.032981	0.085668	0.916996	7519.387207
7887.033965	0.085602	0.916996	7603.619141
7887.034853	0.085609	0.916996	7679.640137
7887.035824	0.085701	0.916996	7762.855469
7887.036869	0.085653	0.916996	7852.362793
7887.037780	0.085591	0.916996	7930.335937
7887.038644	0.085594	0.916996	8004.289551
7887.039739	0.085627	0.916996	8098.051758
7887.040716	0.085558	0.916996	8181.641602
7888.039888	1.098637	0.861248	479.005524
7888.040757	1.616429	0.861248	1883.682739
7888.041688	1.610471	0.861248	3383.031494
7888.042640	1.566603	0.861248	4874.437500
7888.043561	1.524137	0.861248	6278.167480
7888.044441	1.124993	0.861248	7268.161133
7888.045415	0.119161	0.861248	7384.224121
7888.046372	0.085576	0.861248	7466.120605
7888.047263	0.085591	0.861248	7542.381836
7888.048171	0.085638	0.861248	7620.141602
7888.049101	0.085551	0.861248	7699.703613
7888.050036	0.085657	0.861248	7779.792480
7888.050908	0.085686	0.861248	7854.510742
7888.051809	0.085507	0.861248	7931.552246
7888.052763	0.085569	0.861248	8013.185059
7888.053681	0.085613	0.861248	8091.777832
7889.102307	1.125828	0.922390	506.622406
7889.103185	1.617751	0.922390	1927.008179
7889.104046	1.612599	0.922390	3315.455811
7889.105010	1.568642	0.922390	4827.626953
7889.105968	1.523939	0.922390	6287.560547
7889.106863	1.138272	0.922390	7306.313477
7889.107756	0.135136	0.922390	7426.989258
7889.108699	0.085565	0.922390	7507.677246
7889.109647	0.085547	0.922390	7588.775879
7889.110532	0.085580	0.922390	7664.514160
7889.111443	0.085613	0.922390	7742.507324
7889.112396	0.085598	0.922390	7824.082520
7889.113320	0.085616	0.922390	7903.191895
7889.114182	0.085598	0.922390	7976.977539
7889.115139	0.085627	0.922390	8058.922852
7889.116046	0.085573	0.922390	8136.537109
7890.114026	1.106514	0.863121	523.380920
7890.114959	1.621124	0.863121	2035.889893
7890.115869	1.607736	0.863121	3498.929199
7890.116755	1.566475	0.863121	4886.825684
7890.117678	1.522709	0.863121	6292.285645
7890.118647	1.011226	0.863121	7272.163086
7890.119568	0.106989	0.863121	7370.699707
7890.120428	0.085543	0.863121	7444.267090
7890.121406	0.085616	0.863121	7528.000000
7890.122355	0.085664	0.863121	7609.295410
7890.123242	0.085620	0.863121	7685.240234
7890.124152	0.085602	0.863121	7763.137695
7890.125078	0.085598	0.863121	7842.401367
7890.126020	0.085660	0.863121	7923.093262
7890.126895	0.085624	0.863121	7998.014160
7890.127807	0.085627	0.863121	8076.106445
7891.177458	1.150682	0.931917	540.820740
7891.178385	1.621176	0.931917	2043.650391
7891.179266	1.609607	0.931917	3461.714111
7891.180197	1.566713	0.931917	4920.323730
7891.181160	1.522017	0.931917	6386.025879
7891.182069	1.020604	0.931917	7313.754883
7891.182946	0.114239	0.931917	7413.942871
7891.183897	0.085598	0.931917	7495.346680
7891.184825	0.085591	0.931917	7574.774902
7891.185753	0.085573	0.931917	7654.186035
7891.186610	0.085624	0.931917	7727.565430
7891.187581	0.085569	0.931917	7810.652832
7891.188525	0.085609	0.931917	7891.467773
7891.189412	0.085609	0.931917	7967.402832
7891.190332	0.085580	0.931917	8046.136230
7891.191273	0.085514	0.931917	8126.604980
7892.190185	1.145380	0.870066	524.583862
7892.191071	1.618572	0.870066	1958.638428
7892.191979	1.610189	0.870066	3420.690186
7892.192861	1.568119	0.870066	4803.770996
7892.193842	1.523489	0.870066	6298.313477
7892.194774	1.080505	0.870066	7305.344727
7892.195649	0.121575	0.870066	7411.722656
7892.196673	0.085638	0.870066	7499.416504
7892.197563	0.085580	0.870066	7575.582520
7892.198483	0.085635	0.870066	7654.366699
7892.199346	0.085602	0.870066	7728.241211
7892.200341	0.085580	0.870066	7813.393066
7892.201265	0.085584	0.870066	7892.472168
7892.202142	0.085664	0.870066	7967.599609
7892.203044	0.085602	0.870066	8044.812500
7892.203995	0.085605	0.870066	8126.223145
7893.254080	1.091928	0.943994	465.161133
7893.254951	1.615422	0.943994	1872.193970
7893.255908	1.610500	0.943994	3413.442871
7893.256891	1.564944	0.943994	4951.782715
7893.257817	1.521866	0.943994	6361.031250
7893.258691	1.110549	0.943994	7331.651367
7893.259757	0.106128	0.943994	7444.783691
7893.260649	0.085543	0.943994	7521.088379
7893.261527	0.085602	0.943994	7596.246582
7893.262439	0.085587	0.943994	7674.302246
7893.263451	0.085532	0.943994	7760.860840
7893.264349	0.085602	0.943994	7837.731445
7893.265233	0.085660	0.943994	7913.455078
7893.266219	0.085646	0.943994	7997.901855
7893.267146	0.085598	0.943994	8077.251465
7893.268061	0.085569	0.943994	8155.546875
7894.267836	1.100980	0.888701	470.118591
7894.268926	1.623475	0.888701	2239.706787
7894.269915	1.599159	0.888701	3821.274902
7894.270815	1.556993	0.888701	5222.568848
7894.271802	1.511631	0.888701	6714.548828
7894.272866	0.518397	0.888701	7266.123535
7894.273763	0.086938	0.888701	7344.107422
7894.274625	0.085638	0.888701	7417.927734
7894.275715	0.085682	0.888701	7511.321289
7894.276675	0.085562	0.888701	7593.460449
7894.277549	0.085660	0.888701	7668.327637
7894.278557	0.085719	0.888701	7754.732422
7894.279607	0.085631	0.888701	7844.645020
7894.280493	0.085653	0.888701	7920.533691
7894.281357	0.085682	0.888701	7994.563477
7894.282455	0.085719	0.888701	8088.683105
7895.329780	1.158904	0.957110	545.843689
7895.330660	1.619385	0.957110	1970.902344
7895.331663	1.606399	0.957110	3582.120605
7895.332717	1.556979	0.957110	5223.176270
7895.333612	1.514465	0.957110	6578.623047
7895.334496	0.846057	0.957110	7326.537598
7895.335583	0.090000	0.957110	7424.367676
7895.336564	0.085587	0.957110	7508.328613
7895.337453	0.085649	0.957110	7584.470703
7895.338440	0.085719	0.957110	7669.075195
7895.339491	0.085660	0.957110	7759.104492
7895.340379	0.085576	0.957110	7835.096191
7895.341248	0.085638	0.957110	7909.516113
7895.342361	0.085664	0.957110	8004.860352
7895.343322	0.085518	0.957110	8087.042969
7895.344190	0.085613	0.957110	8161.354980
7896.342479	1.121997	0.893785	489.190735
7896.343365	1.617741	0.893785	1922.508789
7896.344290	1.610002	0.893785	3411.760986
7896.345261	1.565314	0.893785	4931.680664
7896.346187	1.522397	0.893785	6341.420898
7896.347062	1.108726	0.893785	7311.555664
7896.348034	0.115452	0.893785	7423.774902
7896.348988	0.085518	0.893785	7505.358887
7896.349875	0.085609	0.893785	7581.293945
7896.350767	0.085671	0.893785	7657.712891
7896.351860	0.085693	0.893785	7751.375977
7896.352882	0.085587	0.893785	7838.846191
7896.353765	0.085642	0.893785	7914.468262
7896.354711	0.085605	0.893785	7995.451172
7896.355769	0.085660	0.893785	8086.080078
7896.356700	0.085584	0.893785	8165.758301
7897.404388	1.141622	0.964619	529.712769
7897.405322	1.621666	0.964619	2044.349121
7897.406200	1.609658	0.964619	3457.628906
7897.407124	1.566647	0.964619	4905.210449
7897.408094	1.521907	0.964619	6381.459961
7897.409020	1.026628	0.964619	7332.118164
7897.409878	0.116411	0.964619	7431.999023
7897.410785	0.085525	0.964619	7509.570312
7897.411742	0.085554	0.964619	7591.445801
7897.412668	0.085569	0.964619	7670.682617
7897.413537	0.085598	0.964619	7745.067383
7897.414495	0.085594	0.964619	7827.066895
7897.415422	0.085587	0.964619	7906.406250
7897.416288	0.085565	0.964619	7980.505859
7897.417248	0.085591	0.964619	8062.672852
7897.418164	0.085664	0.964619	8141.141113
7898.418623	1.096721	0.901950	469.396698
7898.419486	1.614752	0.901950	1862.927856
7898.420482	1.608768	0.901950	3465.260986
7898.421433	1.564849	0.901950	4953.432129
7898.422325	1.523243	0.901950	6312.165039
7898.423243	1.077019	0.901950	7300.868652
7898.424212	0.113221	0.901950	7410.580078
7898.425131	0.085598	0.901950	7489.244629
7898.425998	0.085657	0.901950	7563.508789
7898.426943	0.085675	0.901950	7644.471680
7898.427855	0.085609	0.901950	7722.547363
7898.428737	0.085554	0.901950	7798.006348
7898.429774	0.085547	0.901950	7886.718262
7898.430729	0.085605	0.901950	7968.471680
7898.431657	0.085616	0.901950	8047.923828
7898.432518	0.085627	0.901950	8121.648926
7899.481034	1.106591	0.973203	478.047150
7899.481910	1.616495	0.973203	1894.096924
7899.482871	1.609512	0.973203	3440.837646
7899.483803	1.566226	0.973203	4900.560059
7899.484694	1.524401	0.973203	6258.800781
7899.485582	1.104792	0.973203	7239.856445
7899.486571	0.118960	0.973203	7357.507812
7899.487487	0.085591	0.973203	7435.909180
7899.488347	0.085642	0.973203	7509.561523
7899.489374	0.085554	0.973203	7597.425781
7899.490250	0.085584	0.973203	7672.396973
7899.491153	0.085635	0.973203	7749.725098
7899.492030	0.085562	0.973203	7824.762695
7899.493011	0.085638	0.973203	7908.773926
7899.493934	0.085529	0.973203	7987.716797
7899.494816	0.085580	0.973203	8063.198242
7900.493753	1.084783	0.907675	456.693512
7900.494711	1.614924	0.907675	2003.791016
7900.495759	1.603202	0.907675	3683.946533
7900.496657	1.560553	0.907675	5085.323242
7900.497530	1.519391	0.907675	6411.751465
7900.498592	0.781934	0.907675	7242.165039
7900.499544	0.090831	0.907675	7328.636230
7900.500421	0.085602	0.907675	7403.708984
7900.501341	0.085646	0.907675	7482.502930
7900.502393	0.085598	0.907675	7572.552246
7900.503268	0.085569	0.907675	7647.424805
7900.504124	0.085635	0.907675	7720.728027
7900.505136	0.085752	0.907675	7807.508789
7900.506105	0.085580	0.907675	7890.435547
7900.506981	0.085605	0.907675	7965.425781
7900.507860	0.085708	0.907675	8040.763184
7901.555707	1.160032	0.979403	555.655212
7901.556593	1.619908	0.979403	1990.894043
7901.557556	1.607216	0.979403	3538.642578
7901.558616	1.557627	0.979403	5189.727051
7901.559548	1.514103	0.979403	6600.871094
7901.560416	0.862555	0.979403	7349.568848
7901.561485	0.091392	0.979403	7447.266602
7901.562490	0.085547	0.979403	7533.241211
7901.563361	0.085554	0.979403	7607.758789
7901.564337	0.085745	0.979403	7691.445312
7901.565385	0.085635	0.979403	7781.190430
7901.566290	0.085671	0.979403	7858.723145
7901.567158	0.085675	0.979403	7933.088867
7901.568250	0.085657	0.979403	8026.625977
7901.569242	0.085613	0.979403	8111.553711
7901.570131	0.085638	0.979403	8187.686035
7902.571475	1.104382	0.917625	485.928192
7902.572340	1.616353	0.917625	1884.073242
7902.573311	1.609625	0.917625	3447.019287
7902.574250	1.565533	0.917625	4917.055176
7902.575138	1.524082	0.917625	6270.439941
7902.576033	1.112974	0.917625	7266.551270
7902.576979	0.117283	0.917625	7377.500488
7902.577930	0.085529	0.917625	7458.838379
7902.578822	0.085594	0.917625	7535.188477
7902.579744	0.085627	0.917625	7614.137207
7902.580698	0.085594	0.917625	7695.794434
7902.581616	0.085565	0.917625	7774.343262
7902.582481	0.085649	0.917625	7848.430176
7902.583412	0.085558	0.917625	7928.084473
7902.584344	0.085602	0.917625	8007.865234
7902.585266	0.085594	0.917625	8086.783203
7903.632388	1.166232	0.990457	545.796387
7903.633282	1.620113	0.990457	1994.177856
7903.634207	1.608680	0.990457	3482.207031
7903.635079	1.566672	0.990457	4848.345215
7903.636079	1.521262	0.990457	6369.607422
7903.637013	1.015020	0.990457	7317.635742
7903.637888	0.113408	0.990457	7416.868164
7903.638812	0.085584	0.990457	7495.947266
7903.639762	0.085602	0.990457	7577.269043
7903.640658	0.085510	0.990457	7653.886230
7903.641532	0.085587	0.990457	7728.689453
7903.642493	0.085551	0.990457	7810.903320
7903.643447	0.085529	0.990457	7892.497559
7903.644373	0.085627	0.990457	7971.788574
7903.645234	0.085521	0.990457	8045.422363
7903.646207	0.085532	0.990457	8128.645020
7904.647725	1.159362	0.927864	624.895874
7904.648750	1.625717	0.927864	2291.255371
7904.649625	1.602030	0.927864	3693.031738
7904.650497	1.560502	0.927864	5053.789062
7904.651540	1.512147	0.927864	6630.958496
7904.652500	0.690157	0.927864	7293.509766
7904.653375	0.090905	0.927864	7373.051270
7904.654317	0.085642	0.927864	7453.726074
7904.655352	0.085594	0.927864	7542.316406
7904.656240	0.085613	0.927864	7618.340332
7904.657100	0.085584	0.927864	7691.942383
7904.658134	0.085679	0.927864	7780.534180
7904.659089	0.085529	0.927864	7862.213867
7904.659961	0.085547	0.927864	7936.810547
7904.660849	0.085584	0.927864	8012.808594
7904.661919	0.085569	0.927864	8104.367187
7905.708544	1.156842	0.996314	569.166321
7905.709429	1.620985	0.996314	2003.738037
7905.710363	1.607750	0.996314	3505.376709
7905.711414	1.558788	0.996314	5143.662598
7905.712355	1.514927	0.996314	6569.208496
7905.713229	0.898264	0.996314	7354.291504
7905.714274	0.093109	0.996314	7451.590332
7905.715285	0.085551	0.996314	7538.082031
7905.716166	0.085554	0.996314	7613.455078
7905.717109	0.085580	0.996314	7694.156738
7905.718160	0.085664	0.996314	7784.189453
7905.719092	0.085616	0.996314	7863.983887
7905.719950	0.085594	0.996314	7937.423828
7905.720977	0.085638	0.996314	8025.374512
7905.721993	0.085496	0.996314	8112.238281
7905.722881	0.085547	0.996314	8188.204102
7906.722820	1.173596	0.937794	571.541321
7906.723721	1.621490	0.937794	2032.504150
7906.724610	1.609003	0.937794	3462.907715
7906.725536	1.565797	0.937794	4912.835937
7906.726501	1.521266	0.937794	6380.857422
7906.727426	1.021556	0.937794	7325.796875
7906.728294	0.113840	0.937794	7424.610352
7906.729244	0.085514	0.937794	7505.848633
7906.730182	0.085605	0.937794	7586.146484
7906.731114	0.085605	0.937794	7665.930664
7906.731978	0.085624	0.937794	7739.909668
7906.732944	0.085616	0.937794	7822.615234
7906.733852	0.085518	0.937794	7900.265137
7906.734728	0.085540	0.937794	7975.197754
7906.735673	0.085576	0.937794	8056.067383
7906.736610	0.085554	0.937794	8136.231445
7907.783609	1.083933	1.007670	457.419769
7907.784597	1.616477	1.007670	2054.499023
7907.785555	1.605330	1.007670	3592.404785
7907.786488	1.561934	1.007670	5049.688477
7907.787357	1.520669	1.007670	6371.149902
7907.788395	0.855853	1.007670	7259.525391
7907.789270	0.098650	1.007670	7345.844238
7907.790136	0.085624	1.007670	7419.994629
7907.791074	0.085679	1.007670	7500.361328
7907.792057	0.085686	1.007670	7584.590820
7907.792975	0.085657	1.007670	7663.223633
7907.793850	0.085591	1.007670	7738.115723
7907.794858	0.085624	1.007670	7824.424316
7907.795764	0.085620	1.007670	7901.996094
7907.796646	0.085591	1.007670	7977.487305
7907.797504	0.085664	1.007670	8050.987305
7908.799924	1.108510	0.944437	463.356995
7908.801042	1.623992	0.944437	2278.979736
7908.802006	1.599441	0.944437	3820.840820
7908.802879	1.558143	0.944437	5181.100098
7908.803902	1.510605	0.944437	6726.449219
7908.804941	0.525652	0.944437	7272.601562
7908.805830	0.087371	0.944437	7350.273926
7908.806762	0.085591	0.944437	7430.044434
7908.807812	0.085569	0.944437	7519.891602
7908.808758	0.085631	0.944437	7600.898437
7908.809620	0.085580	0.944437	7674.668457
7908.810666	0.085657	0.944437	7764.265625
7908.811661	0.085554	0.944437	7849.392090
7908.812545	0.085554	0.944437	7925.021973
7908.813510	0.085686	0.944437	8007.708984
7908.814565	0.085620	0.944437	8098.038086
7909.859312	1.176771	1.013660	561.319885
7909.860244	1.622022	1.013660	2073.043945
7909.861175	1.606450	1.013660	3568.648926
7909.862049	1.564665	1.013660	4936.166504
7909.863029	1.519838	1.013660	6425.607422
7909.863994	0.928667	1.013660	7321.770996
7909.864885	0.101587	1.013660	7412.285156
7909.865797	0.085580	1.013660	7490.333984
7909.866754	0.085569	1.013660	7572.223145
7909.867676	0.085627	1.013660	7651.171875
7909.868540	0.085551	1.013660	7725.087402
7909.869472	0.085616	1.013660	7804.881836
7909.870419	0.085591	1.013660	7885.936523
7909.871345	0.085565	1.013660	7965.169922
7909.872220	0.085547	1.013660	8040.023437
7909.873187	0.085598	1.013660	8122.796875
7910.875118	1.152477	0.953150	550.883911
7910.876053	1.622091	0.953150	2067.539062
7910.876974	1.606934	0.953150	3547.524902
7910.877844	1.565585	0.953150	4909.583496
7910.878825	1.520526	0.953150	6401.219727
7910.879786	0.961176	0.953150	7324.909180
7910.880672	0.105883	0.953150	7418.721191
7910.881588	0.085569	0.953150	7497.102051
7910.882535	0.085638	0.953150	7578.201660
7910.883456	0.085565	0.953150	7657.007324
7910.884322	0.085649	0.953150	7731.179687
7910.885231	0.085631	0.953150	7809.018555
7910.886189	0.085551	0.953150	7890.976074
7910.887104	0.085624	0.953150	7969.321777
7910.887977	0.085576	0.953150	8044.029785
7910.888937	0.085594	0.953150	8126.200684
7911.935424	1.088112	1.023303	463.535553
7911.936295	1.615041	1.023303	1870.236694
7911.937159	1.613939	1.023303	3264.680176
7911.938154	1.568145	1.023303	4824.983887
7911.939075	1.524910	1.023303	6229.425781
7911.939994	1.154326	1.023303	7290.251465
7911.940859	0.140215	1.023303	7411.537109
7911.941835	0.085492	1.023303	7494.977051
7911.942787	0.085551	1.023303	7576.421387
7911.943656	0.085580	1.023303	7650.790039
7911.944526	0.085602	1.023303	7725.263672
7911.945482	0.085591	1.023303	7807.088379
7911.946429	0.085576	1.023303	7888.128906
7911.947319	0.085649	1.023303	7964.356934
7911.948227	0.085551	1.023303	8042.036621
7911.949179	0.085554	1.023303	8123.484375
7912.950195	1.094231	0.961013	458.482788
7912.951269	1.624296	0.961013	2202.976074
7912.952159	1.604670	0.961013	3631.132812
7912.953040	1.563333	0.961013	5008.428711
7912.954002	1.519120	0.961013	6469.822266
7912.954983	0.858647	0.961013	7312.155273
7912.955901	0.096123	0.961013	7400.395996
7912.956763	0.085547	0.961013	7474.137207
7912.957796	0.085594	0.961013	7562.556152
7912.958668	0.085514	0.961013	7637.124512
7912.959542	0.085594	0.961013	7711.934082
7912.960439	0.085631	0.961013	7788.745117
7912.961451	0.085551	0.961013	7875.322266
7912.962369	0.085543	0.961013	7953.851074
7912.963249	0.085558	0.961013	8029.142090
7912.964229	0.085686	0.961013	8113.114258
7914.011129	1.149078	1.033592	551.557617
7914.012007	1.619630	1.033592	1973.592896
7914.012875	1.610775	1.033592	3371.745605
7914.013928	1.562021	1.033592	5016.554199
7914.014875	1.518062	1.033592	6454.158203
7914.015759	0.996090	1.033592	7334.701660
7914.016701	0.110336	1.033592	7438.637695
7914.017750	0.085624	1.033592	7528.457031
7914.018633	0.085529	1.033592	7603.978516
7914.019497	0.085496	1.033592	7677.846680
7914.020543	0.085657	1.033592	7767.443848
7914.021492	0.085565	1.033592	7848.645020
7914.022365	0.085576	1.033592	7923.353027
7914.023271	0.085682	1.033592	8000.981445
7914.024337	0.085499	1.033592	8092.123535
7914.025214	0.085525	1.033592	8167.128906
7915.026440	1.192284	0.968369	581.834595
7915.027370	1.622428	0.968369	2090.692627
7915.028242	1.608567	0.968369	3493.362793
7915.029235	1.563007	0.968369	5045.428223
7915.030281	1.513608	0.968369	6628.662598
7915.031277	0.669441	0.968369	7295.425781
7915.032155	0.090330	0.968369	7374.735352
7915.033164	0.085697	0.968369	7461.203613
7915.034206	0.085682	0.968369	7550.484863
7915.035072	0.085671	0.968369	7624.676270
7915.035936	0.085664	0.968369	7698.689941
7915.037024	0.085690	0.968369	7791.920410
7915.037985	0.085518	0.968369	7874.103027
7915.038847	0.085558	0.968369	7947.854004
7915.039898	0.085627	0.968369	8037.848633
7915.040941	0.085613	0.968369	8127.142578
7916.086739	1.116654	1.038647	489.094482
7916.087607	1.616056	1.038647	1891.830933
7916.088589	1.609277	1.038647	3472.141113
7916.089518	1.565548	1.038647	4926.535156
7916.090399	1.523994	1.038647	6269.173828
7916.091300	1.134448	1.038647	7291.311523
7916.092229	0.123666	1.038647	7406.197266
7916.093173	0.085565	1.038647	7486.970703
7916.094067	0.085671	1.038647	7563.561035
7916.094975	0.085627	1.038647	7641.310547
7916.095934	0.085616	1.038647	7723.416504
7916.096850	0.085675	1.038647	7801.895020
7916.097714	0.085591	1.038647	7875.845703
7916.098679	0.085646	1.038647	7958.493652
7916.099613	0.085638	1.038647	8038.479980
7916.100528	0.085693	1.038647	8116.889648
7917.102550	1.113333	0.975890	494.319641
7917.103417	1.616437	0.975890	1895.770264
7917.104389	1.608461	0.975890	3459.193848
7917.105317	1.565164	0.975890	4911.665527
7917.106227	1.522423	0.975890	6297.070312
7917.107115	1.082926	0.975890	7258.708496
7917.108080	0.115258	0.975890	7369.932129
7917.109031	0.085562	0.975890	7451.301270
7917.109916	0.085613	0.975890	7527.068359
7917.110830	0.085642	0.975890	7605.345215
7917.111753	0.085554	0.975890	7684.311523
7917.112676	0.085598	0.975890	7763.318848
7917.113540	0.085605	0.975890	7837.281738
7917.114560	0.085657	0.975890	7924.651367
7917.115480	0.085584	0.975890	8003.388184
7917.116357	0.085532	0.975890	8078.399902
7918.163484	1.179580	1.048086	593.328796
7918.164424	1.623629	1.048086	2119.540039
7918.165300	1.606959	1.048086	3527.236328
7918.166242	1.562747	1.048086	4999.343750
7918.167300	1.514088	1.048086	6601.249023
7918.168195	0.835635	1.048086	7349.142090
7918.169070	0.096332	1.048086	7433.432617
7918.169997	0.085642	1.048086	7512.822754
7918.171001	0.085547	1.048086	7598.711914
7918.171922	0.085635	1.048086	7677.581543
7918.172784	0.085657	1.048086	7751.417480
7918.173798	0.085627	1.048086	7838.243652
7918.174697	0.085573	1.048086	7915.173340
7918.175596	0.085605	1.048086	7992.132812
7918.176470	0.085620	1.048086	8066.964844
7918.177486	0.085569	1.048086	8153.902832
7919.178170	1.090778	0.981014	463.580444
7919.179132	1.614657	0.981014	2016.880493
7919.180202	1.601404	0.981014	3730.382568
7919.181141	1.556979	0.981014	5192.385742
7919.182010	1.515319	0.981014	6509.197754
7919.183094	0.660077	0.981014	7224.721191
7919.184081	0.087378	0.981014	7310.963379
7919.184975	0.085653	0.981014	7387.537109
7919.185963	0.085679	0.981014	7472.187500
7919.187016	0.085591	0.981014	7562.314453
7919.187911	0.085591	0.981014	7638.918457
7919.188767	0.085598	0.981014	7712.190430
7919.189852	0.085679	0.981014	7805.151855
7919.190835	0.085605	0.981014	7889.302246
7919.191713	0.085543	0.981014	7964.409180
7919.192694	0.085763	0.981014	8048.542480
7920.239116	1.184758	1.053862	584.085815
7920.240048	1.621978	1.053862	2095.769043
7920.240923	1.608029	1.053862	3502.793945
7920.241841	1.564362	1.053862	4938.877930
7920.242792	1.520057	1.053862	6384.452148
7920.243732	0.990886	1.053862	7315.885254
7920.244606	0.109149	1.053862	7411.281738
7920.245559	0.085510	1.053862	7492.772949
7920.246474	0.085547	1.053862	7571.048340
7920.247397	0.085609	1.053862	7650.065430
7920.248258	0.085602	1.053862	7723.768555
7920.249361	0.085642	1.053862	7818.231934
7920.250400	0.085635	1.053862	7907.206543
7920.251277	0.085598	1.053862	7982.275879
7920.252180	0.085664	1.053862	8059.630371
7920.253238	0.085580	1.053862	8150.173828
7921.254372	1.118097	0.988394	518.796936
7921.255269	1.619198	0.988394	1971.217529
7921.256149	1.610662	0.988394	3388.599609
7921.257061	1.568815	0.988394	4819.358398
7921.258038	1.523859	0.988394	6308.168457
7921.258966	1.081959	0.988394	7312.226562
7921.259828	0.125171	0.988394	7420.124023
7921.260774	0.085562	0.988394	7501.065430
7921.261722	0.085565	0.988394	7582.181152
7921.262638	0.085543	0.988394	7660.538574
7921.263518	0.085627	0.988394	7735.890625
7921.264474	0.085565	0.988394	7817.690918
7921.265419	0.085635	0.988394	7898.615723
7921.266310	0.085562	0.988394	7974.851074
7921.267216	0.085598	0.988394	8052.402832
7921.268143	0.085616	0.988394	8131.769531
7922.314695	1.109989	1.062269	483.955231
7922.315570	1.615953	1.062269	1897.914307
7922.316571	1.607996	1.062269	3507.518066
7922.317513	1.563149	1.062269	4980.004883
7922.318434	1.520647	1.062269	6380.520508
7922.319308	1.058090	1.062269	7305.291016
7922.320348	0.101470	1.062269	7410.819336
7922.321230	0.085499	1.062269	7486.229492
7922.322148	0.085565	1.062269	7564.778320
7922.323005	0.085649	1.062269	7638.179687
7922.323967	0.085660	1.062269	7720.584961
7922.324903	0.085635	1.062269	7800.739258
7922.325780	0.085638	1.062269	7875.844238
7922.326822	0.085679	1.062269	7965.121582
7922.327722	0.085620	1.062269	8042.179687
7922.328636	0.085657	1.062269	8120.469727
7923.330058	1.154528	0.995875	573.800171
7923.330943	1.621088	0.995875	2008.462769
7923.331812	1.610237	0.995875	3407.758545
7923.332825	1.562970	0.995875	4991.047363
7923.333793	1.518157	0.995875	6460.623047
7923.334674	0.991274	0.995875	7333.935547
7923.335533	0.110999	0.995875	7429.283203
7923.336635	0.085609	0.995875	7523.624512
7923.337531	0.085569	0.995875	7600.294434
7923.338408	0.085616	0.995875	7675.379883
7923.339413	0.085715	0.995875	7761.523926
7923.340400	0.085580	0.995875	7845.991211
7923.341289	0.085624	0.995875	7922.110840
7923.342145	0.085671	0.995875	7995.445312
7923.343230	0.085594	0.995875	8088.315430
7923.344112	0.085598	0.995875	8163.812988
7924.390347	1.107806	1.070524	484.111420
7924.391215	1.615825	1.070524	1886.647705
7924.392221	1.607351	1.070524	3503.642822
7924.393269	1.558850	1.070524	5137.317871
7924.394169	1.516399	1.070524	6502.077148
7924.395076	0.883722	1.070524	7303.612793
7924.396172	0.090333	1.070524	7402.618164
7924.397122	0.085584	1.070524	7483.922363
7924.397990	0.085565	1.070524	7558.192871
7924.399030	0.085767	1.070524	7647.390137
7924.400049	0.085580	1.070524	7734.596191
7924.400944	0.085543	1.070524	7811.157227
7924.401881	0.085627	1.070524	7891.390137
7924.402919	0.085620	1.070524	7980.263672
7924.403855	0.085543	1.070524	8060.332031
7924.404719	0.085558	1.070524	8134.253906
7925.406665	1.104067	1.004850	473.644897
7925.407570	1.615477	1.004850	1935.651733
7925.408530	1.607703	1.004850	3479.046387
7925.409457	1.564680	1.004850	4929.504883
7925.410332	1.523591	1.004850	6262.647461
7925.411263	1.076360	1.004850	7264.738281
7925.412220	0.114280	1.004850	7374.104004
7925.413147	0.085477	1.004850	7453.341309
7925.414018	0.085627	1.004850	7527.922852
7925.414990	0.085602	1.004850	7611.127930
7925.415916	0.085587	1.004850	7690.381836
7925.416776	0.085613	1.004850	7764.008789
7925.417766	0.085598	1.004850	7848.750977
7925.418715	0.085613	1.004850	7929.997559
7925.419637	0.085503	1.004850	8008.831055
7925.420495	0.085554	1.004850	8082.236328
7926.466489	1.091832	1.091974	460.753235
7926.467441	1.617697	1.091974	2000.800293
7926.468378	1.607479	1.091974	3507.008301
7926.469266	1.565878	1.091974	4897.507812
7926.470188	1.523961	1.091974	6302.600098
7926.471120	1.045276	1.091974	7276.797363
7926.472073	0.110555	1.091974	7382.156738
7926.472963	0.085551	1.091974	7458.296875
7926.473895	0.085594	1.091974	7538.070801
7926.474847	0.085551	1.091974	7619.515137
7926.475778	0.085609	1.091974	7699.217285
7926.476635	0.085551	1.091974	7772.534180
7926.477581	0.085569	1.091974	7853.482422
7926.478504	0.085562	1.091974	7932.455566
7926.479386	0.085627	1.091974	8007.979004
7926.480368	0.085565	1.091974	8092.003906
7927.482964	1.219457	1.003335	678.018005
7927.483845	1.623102	1.003335	2107.970703
7927.484717	1.607743	1.003335	3509.922363
7927.485601	1.564490	1.003335	4892.931152
7927.486640	1.517113	1.003335	6469.211426
7927.487548	0.939064	1.003335	7321.881348
7927.488424	0.104293	1.003335	7413.242187
7927.489416	0.085609	1.003335	7498.166504
7927.490339	0.085620	1.003335	7577.193848
7927.491259	0.085620	1.003335	7655.964355
7927.492122	0.085627	1.003335	7729.860840
7927.493155	0.085631	1.003335	7818.317871
7927.494034	0.085576	1.003335	7893.539551
7927.494909	0.085536	1.003335	7968.383301
7927.495894	0.085686	1.003335	8052.784180
7927.496842	0.085620	1.003335	8133.952148
7928.542737	1.170956	1.086411	593.674561
7928.543643	1.622402	1.086411	2063.571045
7928.544523	1.608274	1.086411	3478.852051
7928.545535	1.561542	1.086411	5059.132324
7928.546543	1.513777	1.086411	6585.019531
7928.547446	0.842512	1.086411	7345.808105
7928.548309	0.097987	1.086411	7430.371094
7928.549391	0.085507	1.086411	7522.889160
7928.550287	0.085569	1.086411	7599.559082
7928.551155	0.085584	1.086411	7673.845703
7928.552146	0.085701	1.086411	7758.774902
7928.553148	0.085598	1.086411	7844.544434
7928.554027	0.085602	1.086411	7919.788574
7928.554888	0.085620	1.086411	7993.507324
7928.555967	0.085668	1.086411	8085.942871
7928.556880	0.085624	1.086411	8164.117187
7929.558040	1.136151	1.014421	588.526245
7929.559094	1.624135	1.014421	2300.364014
7929.560034	1.598796	1.014421	3803.232422
7929.560894	1.557125	1.014421	5142.360352
7929.561937	1.508932	1.014421	6716.176270
7929.562963	0.498409	1.014421	7227.544434
7929.563852	0.087272	1.014421	7305.128906
7929.564813	0.085671	1.014421	7387.458984
7929.565863	0.085712	1.014421	7477.456055
7929.566778	0.085679	1.014421	7555.852051
7929.567641	0.085558	1.014421	7629.688477
7929.568712	0.085682	1.014421	7721.454102
7929.569697	0.085518	1.014421	7805.688965
7929.570589	0.085631	1.014421	7882.071777
7929.571562	0.085701	1.014421	7965.458496
7929.572598	0.085660	1.014421	8054.202637
7930.618314	1.101064	1.095793	476.760895
7930.619187	1.616030	1.095793	1887.555298
7930.620108	1.611423	1.095793	3371.676270
7930.621036	1.567013	1.095793	4825.864258
7930.621980	1.523210	1.095793	6263.774902
7930.622883	1.145585	1.095793	7298.237793
7930.623798	0.128771	1.095793	7416.062988
7930.624757	0.085547	1.095793	7498.102539
7930.625677	0.085551	1.095793	7576.809082
7930.626539	0.085605	1.095793	7650.601074
7930.627518	0.085558	1.095793	7734.362305
7930.628430	0.085624	1.095793	7812.451172
7930.629325	0.085591	1.095793	7889.055176
7930.630194	0.085624	1.095793	7963.462402
7930.631162	0.085562	1.095793	8046.286133
7930.632109	0.085580	1.095793	8127.330078
7931.633660	1.180305	1.029842	564.185852
7931.634594	1.622146	1.029842	2079.270020
7931.635475	1.608105	1.029842	3496.010742
7931.636408	1.564446	1.029842	4955.638672
7931.637365	1.520098	1.029842	6410.372070
7931.638291	0.995786	1.029842	7332.469727
7931.639149	0.111870	1.029842	7428.454102
7931.640093	0.085529	1.029842	7509.192871
7931.641037	0.085605	1.029842	7590.004395
7931.641950	0.085682	1.029842	7668.232422
7931.642809	0.085653	1.029842	7741.808594
7931.643772	0.085638	1.029842	7824.278320
7931.644700	0.085569	1.029842	7903.686035
7931.645561	0.085613	1.029842	7977.398437
7931.646546	0.085565	1.029842	8061.680176
7931.647484	0.085602	1.029842	8141.974609
7932.694455	1.082329	1.105256	453.495911
7932.695435	1.615422	1.105256	2036.609863
7932.696383	1.605388	1.105256	3558.517822
7932.697299	1.562834	1.105256	4990.074219
7932.698184	1.521105	1.105256	6336.251953
7932.699217	0.892526	1.105256	7258.230957
7932.700122	0.098536	1.105256	7347.406250
7932.701003	0.085554	1.105256	7422.779297
7932.701918	0.085613	1.105256	7501.115234
7932.702911	0.085602	1.105256	7586.117676
7932.703830	0.085565	1.105256	7664.751953
7932.704693	0.085594	1.105256	7738.620117
7932.705770	0.085616	1.105256	7830.829102
7932.706650	0.085584	1.105256	7906.142578
7932.707512	0.085598	1.105256	7979.928223
7932.708383	0.085624	1.105256	8054.506348
7933.710806	1.109498	1.027191	503.712219
7933.711884	1.623285	1.027191	2253.613281
7933.712846	1.599701	1.027191	3792.525635
7933.713713	1.558363	1.027191	5143.626465
7933.714750	1.510576	1.027191	6710.093750
7933.715790	0.534155	1.027191	7265.615234
7933.716673	0.087642	1.027191	7343.002930
7933.717616	0.085624	1.027191	7423.746094
7933.718673	0.085653	1.027191	7514.281250
7933.719601	0.085638	1.027191	7593.753906
7933.720457	0.085521	1.027191	7666.959961
7933.721484	0.085609	1.027191	7754.880371
7933.722496	0.085565	1.027191	7841.472168
7933.723383	0.085551	1.027191	7917.355469
7933.724333	0.085594	1.027191	7998.670410
7933.725376	0.085584	1.027191	8087.934082
7934.771193	1.132181	1.103548	533.257385
7934.772080	1.619198	1.103548	1969.486084
7934.772949	1.610453	1.103548	3368.969727
7934.773921	1.566530	1.103548	4891.636230
7934.774839	1.522364	1.103548	6289.166992
7934.775755	1.079839	1.103548	7278.299316
7934.776633	0.122926	1.103548	7386.228516
7934.777598	0.085521	1.103548	7468.756348
7934.778545	0.085576	1.103548	7549.796875
7934.779434	0.085584	1.103548	7625.880371
7934.780339	0.085518	1.103548	7703.273926
7934.781307	0.085558	1.103548	7786.093750
7934.782224	0.085609	1.103548	7864.597168
7934.783087	0.085649	1.103548	7938.512695
7934.784039	0.085576	1.103548	8019.981445
7934.784961	0.085558	1.103548	8098.865723
7935.786485	1.154539	1.030820	546.096802
7935.787409	1.621348	1.030820	2044.222046
7935.788308	1.607721	1.030820	3489.563232
7935.789224	1.565087	1.030820	4923.182617
7935.790193	1.520306	1.030820	6396.359375
7935.791133	0.977402	1.030820	7315.117676
7935.791996	0.109471	1.030820	7409.591309
7935.792966	0.085558	1.030820	7492.582520
7935.793893	0.085518	1.030820	7571.857422
7935.794805	0.085613	1.030820	7649.936523
7935.795661	0.085609	1.030820	7723.217773
7935.796603	0.085649	1.030820	7803.899414
7935.797551	0.085547	1.030820	7884.998047
7935.798439	0.085613	1.030820	7961.021973
7935.799346	0.085642	1.030820	8038.699219
7935.800298	0.085551	1.030820	8120.143555
7936.847298	1.098951	1.107548	472.549133
7936.848162	1.614408	1.107548	1867.397461
7936.849189	1.607267	1.107548	3518.060547
7936.850109	1.564182	1.107548	4957.108398
7936.850983	1.523104	1.107548	6288.301758
7936.852023	0.947245	1.107548	7273.436523
7936.852890	0.104630	1.107548	7364.150879
7936.853804	0.085584	1.107548	7442.374023
7936.854686	0.085649	1.107548	7517.916992
7936.855663	0.085591	1.107548	7601.539062
7936.856587	0.085551	1.107548	7680.587891
7936.857466	0.085653	1.107548	7755.876953
7936.858430	0.085682	1.107548	7838.474609
7936.859358	0.085565	1.107548	7917.878906
7936.860269	0.085584	1.107548	7995.845703
7936.861146	0.085573	1.107548	8070.892578
7937.862603	1.107045	1.033709	480.457397
7937.863474	1.615638	1.033709	1887.678467
7937.864542	1.604304	1.033709	3601.075195
7937.865547	1.557367	1.033709	5166.229004
7937.866441	1.515678	1.033709	6521.244629
7937.867310	0.917153	1.033709	7318.250977
7937.868395	0.092391	1.033709	7418.495605
7937.869307	0.085609	1.033709	7496.571289
7937.870180	0.085569	1.033709	7571.272949
7937.871165	0.085653	1.033709	7655.641113
7937.872168	0.085591	1.033709	7741.488770
7937.873051	0.085591	1.033709	7817.065430
7937.873907	0.085543	1.033709	7890.290527
7937.874955	0.085679	1.033709	7980.082031
7937.875885	0.085584	1.033709	8059.674805
7937.876755	0.085624	1.033709	8134.167480
7938.923518	1.124733	1.103246	540.996460
7938.924451	1.620937	1.103246	2053.331055
7938.925374	1.606047	1.103246	3535.712891
7938.926247	1.564918	1.103246	4901.886719
7938.927249	1.517926	1.103246	6422.848633
7938.928332	0.737043	1.103246	7221.066406
7938.929230	0.090659	1.103246	7302.478516
7938.930097	0.085631	1.103246	7376.720703
7938.931171	0.085715	1.103246	7468.778809
7938.932169	0.085657	1.103246	7554.264160
7938.933063	0.085660	1.103246	7630.844727
7938.934032	0.085646	1.103246	7713.835449
7938.935091	0.085701	1.103246	7804.592285
7938.935988	0.085609	1.103246	7881.383789
7938.936852	0.085668	1.103246	7955.400879
7938.937958	0.085719	1.103246	8050.206055
7939.938255	1.106305	1.037089	487.880463
7939.939115	1.615093	1.037089	1876.860229
7939.940077	1.609182	1.037089	3424.893555
7939.941030	1.565134	1.037089	4916.466797
7939.941925	1.523170	1.037089	6279.704102
7939.942854	1.101866	1.037089	7303.337891
7939.943772	0.114518	1.037089	7408.465332
7939.944718	0.085598	1.037089	7489.441406
7939.945608	0.085660	1.037089	7565.679199
7939.946531	0.085591	1.037089	7644.679687
7939.947480	0.085646	1.037089	7725.957520
7939.948370	0.085638	1.037089	7802.175781
7939.949296	0.085653	1.037089	7881.490723
7939.950212	0.085591	1.037089	7959.892090
7939.951136	0.085584	1.037089	8038.971191
7939.952024	0.085708	1.037089	8115.080078
7940.998079	1.087694	1.117611	462.269958
7940.999002	1.614368	1.117611	1952.331299
7940.999934	1.608593	1.117611	3451.539551
7941.000865	1.565204	1.117611	4908.744141
7941.001750	1.523899	1.117611	6257.394531
7941.002689	1.088335	1.117611	7279.340820
7941.003638	0.118524	1.117611	7391.820312
7941.004561	0.085624	1.117611	7470.851074
7941.005420	0.085602	1.117611	7544.382812
7941.006365	0.085616	1.117611	7625.290527
7941.007316	0.085609	1.117611	7706.704590
7941.008209	0.085620	1.117611	7783.163574
7941.009109	0.085536	1.117611	7860.145996
7941.010033	0.085620	1.117611	7939.258789
7941.010985	0.085631	1.117611	8020.779785
7941.011873	0.085547	1.117611	8096.745605
7942.014981	1.149415	1.047929	574.707703
7942.015898	1.621644	1.047929	2061.755371
7942.016830	1.605948	1.047929	3558.499268
7942.017699	1.564556	1.047929	4918.098145
7942.018708	1.519167	1.047929	6450.937988
7942.019651	0.926913	1.047929	7325.016602
7942.020524	0.102649	1.047929	7414.628906
7942.021388	0.085576	1.047929	7488.566895
7942.022344	0.085562	1.047929	7570.363770
7942.023297	0.085616	1.047929	7651.956055
7942.024190	0.085620	1.047929	7728.415039
7942.025107	0.085649	1.047929	7806.955566
7942.026058	0.085653	1.047929	7888.411621
7942.026978	0.085598	1.047929	7967.162109
7942.027847	0.085569	1.047929	8041.521484
7942.028845	0.085594	1.047929	8126.944824
7943.074841	1.176669	1.118734	591.864380
7943.075716	1.620707	1.118734	2009.982788
7943.076589	1.609504	1.118734	3415.080078
7943.077524	1.565665	1.118734	4878.977051
7943.078518	1.519680	1.118734	6389.539062
7943.079441	1.005937	1.118734	7318.019531
7943.080319	0.109669	1.118734	7414.309082
7943.081384	0.085580	1.118734	7505.451660
7943.082282	0.085569	1.118734	7582.292480
7943.083156	0.085565	1.118734	7657.076660
7943.084012	0.085631	1.118734	7730.376953
7943.085074	0.085573	1.118734	7821.254883
7943.085955	0.085543	1.118734	7896.618652
7943.086820	0.085587	1.118734	7970.651367
7943.087794	0.085573	1.118734	8053.999023
7943.088715	0.085558	1.118734	8132.797852
7944.090168	1.204552	1.053407	664.912720
7944.091232	1.625475	1.053407	2394.417969
7944.092140	1.597936	1.053407	3845.343750
7944.093007	1.554895	1.053407	5193.437500
7944.094117	1.505435	1.053407	6864.469727
7944.095090	0.462517	1.053407	7314.499023
7944.095952	0.087202	1.053407	7389.667480
7944.096994	0.085719	1.053407	7478.986816
7944.098027	0.085584	1.053407	7567.394531
7944.098905	0.085646	1.053407	7642.591309
7944.099815	0.085609	1.053407	7720.495605
7944.100878	0.085657	1.053407	7811.548828
7944.101823	0.085653	1.053407	7892.491211
7944.102680	0.085616	1.053407	7965.864746
7944.103702	0.085741	1.053407	8053.492187
7945.150428	1.125425	1.127383	500.813995
7945.151304	1.616682	1.127383	1917.027588
7945.152243	1.609340	1.127383	3428.197510
7945.153206	1.565010	1.127383	4935.301758
7945.154115	1.521665	1.127383	6318.495117
7945.154997	1.119587	1.127383	7305.971191
7945.155942	0.120762	1.127383	7420.090820
7945.156871	0.085642	1.127383	7499.652344
7945.157778	0.085734	1.127383	7577.412598
7945.158642	0.085638	1.127383	7651.404297
7945.159613	0.085734	1.127383	7734.651855
7945.160577	0.085635	1.127383	7817.203613
7945.161465	0.085693	1.127383	7893.299316
7945.162385	0.085649	1.127383	7972.096680
7945.163327	0.085638	1.127383	8052.768066
7945.164235	0.085594	1.127383	8130.487793
7946.166722	1.092469	1.055325	465.391998
7946.167643	1.614518	1.055325	1952.362915
7946.168579	1.607937	1.055325	3457.392090
7946.169509	1.565120	1.055325	4912.953125
7946.170380	1.522734	1.055325	6239.254883
7946.171426	0.969177	1.055325	7253.014160
7946.172307	0.107296	1.055325	7347.541992
7946.173227	0.085573	1.055325	7426.268555
7946.174091	0.085562	1.055325	7500.193848
7946.175058	0.085587	1.055325	7582.956543
7946.175982	0.085562	1.055325	7662.015625
7946.176856	0.085642	1.055325	7736.866699
7946.177863	0.085591	1.055325	7823.056641
7946.178766	0.085518	1.055325	7900.278809
7946.179681	0.085543	1.055325	7978.550781
7946.180548	0.085591	1.055325	8052.757812
7947.226598	1.118522	1.131057	525.705200
7947.227673	1.623984	1.131057	2271.488281
7947.228557	1.602308	1.131057	3687.928711
7947.229421	1.561362	1.131057	5036.945801
7947.230456	1.513901	1.131057	6603.833984
7947.231419	0.740464	1.131057	7316.900879
7947.232285	0.092391	1.131057	7396.911621
7947.233146	0.085620	1.131057	7470.630371
7947.234254	0.085671	1.131057	7565.554199
7947.235157	0.085605	1.131057	7642.855957
7947.236020	0.085554	1.131057	7716.689453
7947.237089	0.085679	1.131057	7808.279785
7947.238052	0.085558	1.131057	7890.671875
7947.238980	0.085565	1.131057	7970.076172
7947.239843	0.085584	1.131057	8043.934570
7947.240925	0.085715	1.131057	8136.678711
7948.241852	1.082494	1.061907	454.647430
7948.242783	1.613573	1.061907	1956.883911
7948.243836	1.603063	1.061907	3644.908936
7948.244777	1.559044	1.061907	5111.969727
7948.245643	1.518263	1.061907	6426.785645
7948.246691	0.793608	1.061907	7258.487305
7948.247709	0.089850	1.061907	7349.954590
7948.248595	0.085554	1.061907	7425.755371
7948.249554	0.085638	1.061907	7507.882812
7948.250594	0.085638	1.061907	7596.946777
7948.251529	0.085602	1.061907	7676.984375
7948.252386	0.085613	1.061907	7750.354492
7948.253427	0.085715	1.061907	7839.583984
7948.254430	0.085576	1.061907	7925.416992
7948.255313	0.085616	1.061907	8001.016113
7948.256276	0.085671	1.061907	8083.517578
7949.302200	1.087024	1.132447	460.898102
7949.303256	1.621597	1.132447	2173.304199
7949.304286	1.598401	1.132447	3819.657227
7949.305180	1.555994	1.132447	5210.715820
7949.306145	1.511891	1.132447	6669.690430
7949.307213	0.540846	1.132447	7247.313965
7949.308134	0.086920	1.132447	7327.367676
7949.308997	0.085620	1.132447	7401.257812
7949.310078	0.085781	1.132447	7493.987305
7949.311072	0.085646	1.132447	7579.119141
7949.311957	0.085638	1.132447	7654.909180
7949.312937	0.085635	1.132447	7738.831055
7949.313973	0.085594	1.132447	7827.506836
7949.314876	0.085624	1.132447	7904.825195
7949.315734	0.085664	1.132447	7978.325195
7949.316831	0.085620	1.132447	8072.250488
7950.319076	1.157776	1.056755	539.523560
7950.320006	1.621344	1.056755	2047.373413
7950.320877	1.608318	1.056755	3448.218262
7950.321861	1.563538	1.056755	4986.739258
7950.322821	1.519200	1.056755	6445.171875
7950.323722	1.002096	1.056755	7348.060547
7950.324655	0.111519	1.056755	7452.107422
7950.325591	0.085584	1.056755	7532.213379
7950.326508	0.085627	1.056755	7610.733887
7950.327402	0.085642	1.056755	7687.297852
7950.328308	0.085580	1.056755	7764.833008
7950.329269	0.085565	1.056755	7847.061035
7950.330188	0.085627	1.056755	7925.752441
7950.331058	0.085613	1.056755	8000.235352
7950.332026	0.085598	1.056755	8083.094238
7950.332935	0.085565	1.056755	8160.873047
7951.378914	1.135580	1.136979	516.688843
7951.379789	1.617495	1.136979	1931.997070
7951.380775	1.607483	1.136979	3516.975098
7951.381653	1.565098	1.136979	4891.130859
7951.382570	1.522537	1.136979	6287.296875
7951.383449	1.134672	1.136979	7284.673340
7951.384438	0.114598	1.136979	7398.011230
7951.385358	0.085562	1.136979	7476.728027
7951.386248	0.085602	1.136979	7552.913574
7951.387109	0.085616	1.136979	7626.629395
7951.388073	0.085576	1.136979	7709.125000
7951.389019	0.085649	1.136979	7790.149414
7951.389890	0.085609	1.136979	7864.714844
7951.390801	0.085620	1.136979	7942.714844
7951.391744	0.085602	1.136979	8023.437500
7951.392629	0.085532	1.136979	8099.133301
8153.551839	1.116914	0.276388	483.623840
8153.552702	1.605945	0.276388	1869.554199
8153.553768	1.595988	0.276388	3570.876953
8153.554650	1.554712	0.276388	4942.132812
8153.555519	1.514304	0.276388	6258.063477
8153.556456	1.472208	0.276388	7637.522461
8153.557449	1.430365	0.276388	9057.875000
8153.558365	1.392748	0.276388	10333.631836
8153.559253	1.358122	0.276388	11539.644531
8153.560288	1.318748	0.276388	12904.547852
8153.561200	1.187439	0.276388	13987.492187
8153.562115	0.181190	0.276388	14153.281250
8153.563001	0.085514	0.276388	14229.046875
8153.563957	0.085624	0.276388	14310.903320
8153.564897	0.085518	0.276388	14391.290039
8153.565784	0.085613	0.276388	14467.228516
8153.566726	0.085609	0.276388	14547.872070
8153.567655	0.085507	0.276388	14627.307617
8153.568574	0.085602	0.276388	14705.975586
8153.569446	0.085573	0.276388	14780.594727
8153.570469	0.085540	0.276388	14868.101562
8154.609232	1.227986	0.277267	698.723938
8154.610279	1.616107	0.277267	2390.788086
8154.611166	1.589612	0.277267	3800.773682
8154.612076	1.546758	0.277267	5208.323242
8154.613145	1.498392	0.277267	6810.104492
8154.614106	1.456293	0.277267	8209.601562
8154.614975	1.419518	0.277267	9443.162109
8154.616028	1.377664	0.277267	10893.841797
8154.617060	1.337889	0.277267	12274.543945
8154.617942	1.303821	0.277267	13424.513672
8154.618900	0.703876	0.277267	14098.826172
8154.619946	0.088674	0.277267	14191.579102
8154.620874	0.085642	0.277267	14271.054687
8154.621739	0.085653	0.277267	14345.144531
8154.622776	0.085704	0.277267	14434.019531
8154.623788	0.085682	0.277267	14520.730469
8154.624681	0.085675	0.277267	14597.238281
8154.625624	0.085642	0.277267	14677.999023
8154.626679	0.085701	0.277267	14768.413086
8154.627601	0.085635	0.277267	14847.368164
8154.628464	0.085642	0.277267	14921.277344
8155.630027	1.097369	0.279228	472.966217
8155.630964	1.606802	0.279228	1978.539429
8155.631888	1.599206	0.279228	3456.206055
8155.632792	1.557191	0.279228	4863.906738
8155.633672	1.516706	0.279228	6198.608398
8155.634598	1.474464	0.279228	7563.962402
8155.635545	1.433932	0.279228	8921.896484
8155.636474	1.396263	0.279228	10219.025391
8155.637341	1.361638	0.279228	11399.565430
8155.638311	1.324955	0.279228	12684.771484
8155.639269	1.260890	0.279228	13892.704102
8155.640166	0.279309	0.279228	14143.244141
8155.641086	0.085898	0.279228	14222.270508
8155.642031	0.085627	0.279228	14303.188477
8155.642959	0.085540	0.279228	14382.569336
8155.643829	0.085635	0.279228	14457.071289
8155.644737	0.085594	0.279228	14534.791016
8155.645689	0.085613	0.279228	14616.293945
8155.646602	0.085562	0.279228	14694.412109
8155.647474	0.085584	0.279228	14769.041016
8155.648439	0.085613	0.279228	14851.657227
8156.685257	1.093652	0.285650	473.551483
8156.686122	1.605366	0.285650	1862.193359
8156.687107	1.599240	0.285650	3437.444336
8156.688035	1.556675	0.285650	4882.038574
8156.688945	1.514557	0.285650	6260.285156
8156.689828	1.473688	0.285650	7561.551758
8156.690818	1.432829	0.285650	8980.052734
8156.691742	1.395037	0.285650	10269.066406
8156.692621	1.360181	0.285650	11464.665039
8156.693644	1.321307	0.285650	12816.362305
8156.694559	1.208525	0.285650	13922.163086
8156.695497	0.206272	0.285650	14115.646484
8156.696359	0.085671	0.285650	14189.495117
8156.697359	0.085671	0.285650	14275.166016
8156.698283	0.085624	0.285650	14354.282227
8156.699164	0.085620	0.285650	14429.713867
8156.700072	0.085653	0.285650	14507.487305
8156.700995	0.085602	0.285650	14586.498047
8156.701928	0.085649	0.285650	14666.409180
8156.702816	0.085613	0.285650	14742.433594
8156.703722	0.085573	0.285650	14819.961914
8157.705142	1.080923	0.299793	456.149445
8157.706203	1.611361	0.299793	2165.803467
8157.707146	1.593310	0.299793	3668.295410
8157.708021	1.552701	0.299793	5026.909180
8157.708949	1.509642	0.299793	6427.857422
8157.710015	1.462764	0.299793	7987.163574
8157.710920	1.424458	0.299793	9276.297852
8157.711792	1.388749	0.299793	10487.287109
8157.712833	1.348323	0.299793	11890.890625
8157.713790	1.311954	0.299793	13146.430664
8157.714673	1.039471	0.299793	14064.284180
8157.715605	0.137538	0.299793	14192.469727
8157.716654	0.085573	0.299793	14282.235352
8157.717534	0.085657	0.299793	14357.613281
8157.718393	0.085745	0.299793	14431.267578
8157.719436	0.085701	0.299793	14520.653320
8157.720395	0.085642	0.299793	14602.784180
8157.721262	0.085686	0.299793	14677.074219
8157.722136	0.085682	0.299793	14751.960937
8157.723226	0.085719	0.299793	14845.394531
8157.724126	0.085679	0.299793	14922.505859
8158.760392	1.100424	0.294057	476.483398
8158.761265	1.606377	0.294057	1878.850464
8158.762298	1.596833	0.294057	3528.379395
8158.763335	1.549219	0.294057	5134.919434
8158.764227	1.508163	0.294057	6480.200684
8158.765185	1.465796	0.294057	7884.433105
8158.766240	1.421162	0.294057	9383.758789
8158.767172	1.383376	0.294057	10673.065430
8158.768037	1.349099	0.294057	11840.036133
8158.769117	1.308468	0.294057	13253.181641
8158.770116	0.792975	0.294057	14045.363281
8158.771004	0.096812	0.294057	14131.332031
8158.771984	0.085752	0.294057	14215.369141
8158.773031	0.085664	0.294057	14305.059570
8158.773935	0.085653	0.294057	14382.490234
8158.774793	0.085635	0.294057	14455.964844
8158.775865	0.085653	0.294057	14547.785156
8158.776849	0.085609	0.294057	14632.024414
8158.777727	0.085649	0.294057	14707.224609
8158.778725	0.085730	0.294057	14792.783203
8158.779778	0.085693	0.294057	14883.018555
8159.781305	1.091649	0.307825	461.767609
8159.782362	1.613002	0.307825	2166.710449
8159.783369	1.590271	0.307825	3768.113281
8159.784261	1.549094	0.307825	5149.905273
8159.785231	1.504937	0.307825	6609.693848
8159.786290	1.458179	0.307825	8153.905273
8159.787192	1.419924	0.307825	9434.676758
8159.788060	1.383237	0.307825	10635.326172
8159.789165	1.341801	0.307825	12118.015625
8159.790146	1.304857	0.307825	13398.080078
8159.791022	0.824535	0.307825	14120.373047
8159.792108	0.090846	0.307825	14219.031250
8159.793139	0.085646	0.307825	14307.332031
8159.794033	0.085624	0.307825	14383.879883
8159.794953	0.085653	0.307825	14462.680664
8159.795997	0.085701	0.307825	14552.152344
8159.796940	0.085591	0.307825	14632.864258
8159.797802	0.085642	0.307825	14706.687500
8159.798838	0.085668	0.307825	14795.439453
8159.799853	0.085638	0.307825	14882.362305
8159.800736	0.085609	0.307825	14957.955078
8160.839121	1.115010	0.301304	488.374298
8160.839983	1.606381	0.301304	1873.074341
8160.840963	1.599617	0.301304	3440.698730
8160.841926	1.556056	0.301304	4939.180664
8160.842807	1.514784	0.301304	6273.705078
8160.843714	1.473618	0.301304	7610.276855
8160.844664	1.433474	0.301304	8972.077148
8160.845594	1.395322	0.301304	10269.726562
8160.846472	1.360858	0.301304	11464.559570
8160.847400	1.324570	0.301304	12693.760742
8160.848354	1.249772	0.301304	13886.042969
8160.849283	0.248137	0.301304	14116.562500
8160.850145	0.085811	0.301304	14190.531250
8160.851116	0.085693	0.301304	14273.739258
8160.852068	0.085609	0.301304	14355.239258
8160.852952	0.085569	0.301304	14430.881836
8160.853885	0.085624	0.301304	14510.768555
8160.854808	0.085616	0.301304	14589.792969
8160.855734	0.085584	0.301304	14669.042969
8160.856626	0.085635	0.301304	14745.428711
8160.857537	0.085715	0.301304	14823.515625
8161.855417	1.081783	0.306637	457.594391
8161.856368	1.607333	0.306637	1986.167847
8161.857304	1.598452	0.306637	3482.318848
8161.858228	1.556166	0.306637	4920.215820
8161.859101	1.515396	0.306637	6243.156250
8161.860102	1.471666	0.306637	7716.293945
8161.861035	1.431896	0.306637	9052.252930
8161.861916	1.395209	0.306637	10281.431641
8161.862801	1.360096	0.306637	11485.117187
8161.863741	1.323391	0.306637	12729.104492
8161.864694	1.238258	0.306637	13909.164062
8161.865589	0.254583	0.306637	14137.015625
8161.866499	0.085792	0.306637	14215.086914
8161.867460	0.085616	0.306637	14297.364258
8161.868376	0.085620	0.306637	14375.791992
8161.869243	0.085609	0.306637	14450.014648
8161.870217	0.085616	0.306637	14533.405273
8161.871154	0.085609	0.306637	14613.621094
8161.872085	0.085690	0.306637	14693.398437
8161.872947	0.085638	0.306637	14767.218750
8161.873887	0.085649	0.306637	14847.729492
8162.917324	1.106246	0.327911	485.642151
8162.918191	1.606714	0.327911	1878.663086
8162.919206	1.598390	0.327911	3501.028809
8162.920127	1.555100	0.327911	4933.275879
8162.921044	1.513392	0.327911	6321.056641
8162.921930	1.472267	0.327911	7625.484863
8162.922978	1.429153	0.327911	9123.237305
8162.923878	1.392242	0.327911	10376.255859
8162.924761	1.357764	0.327911	11575.161133
8162.925745	1.320710	0.327911	12874.740234
8162.926693	1.163734	0.327911	13977.959961
8162.927621	0.178129	0.327911	14143.263672
8162.928481	0.085547	0.327911	14216.833984
8162.929522	0.085616	0.327911	14305.960937
8162.930401	0.085584	0.327911	14381.188477
8162.931265	0.085609	0.327911	14455.154297
8162.932193	0.085701	0.327911	14534.684570
8162.933175	0.085558	0.327911	14618.702148
8162.934082	0.085576	0.327911	14696.319336
8162.934954	0.085573	0.327911	14770.938477
8162.936014	0.085649	0.327911	14861.726562
8163.933133	1.097256	0.322565	475.111786
8163.934008	1.606773	0.322565	1881.037842
8163.935030	1.596962	0.322565	3513.132568
8163.936069	1.549490	0.322565	5123.052246
8163.936963	1.508221	0.322565	6471.402344
8163.937903	1.466418	0.322565	7849.835449
8163.938978	1.421217	0.322565	9377.643555
8163.939929	1.382776	0.322565	10692.663086
8163.940800	1.348319	0.322565	11867.048828
8163.941880	1.307637	0.322565	13279.296875
8163.942895	0.739937	0.322565	14030.332031
8163.943786	0.093629	0.322565	14113.755859
8163.944760	0.085671	0.322565	14197.200195
8163.945796	0.085660	0.322565	14285.944336
8163.946702	0.085598	0.322565	14363.496094
8163.947558	0.085638	0.322565	14436.802734
8163.948626	0.085646	0.322565	14528.272461
8163.949623	0.085605	0.322565	14613.621094
8163.950494	0.085562	0.322565	14688.145508
8163.951484	0.085594	0.322565	14772.883789
8163.952533	0.085609	0.322565	14862.687500
8164.992962	1.093081	0.334284	471.117920
8164.993903	1.609281	0.334284	1985.451294
8164.994879	1.597079	0.334284	3544.200195
8164.995804	1.554686	0.334284	4982.285156
8164.996668	1.513780	0.334284	6290.191406
8164.997614	1.471531	0.334284	7682.259766
8164.998572	1.431405	0.334284	9053.545898
8164.999472	1.394352	0.334284	10308.462891
8165.000391	1.358939	0.334284	11557.328125
8165.001338	1.322249	0.334284	12809.498047
8165.002283	1.223987	0.334284	13966.166016
8165.003166	0.226879	0.334284	14166.500000
8165.004140	0.085488	0.334284	14249.765625
8165.005074	0.085638	0.334284	14329.751953
8165.006003	0.085543	0.334284	14409.221680
8165.006870	0.085668	0.334284	14483.495117
8165.007835	0.085532	0.334284	14566.034180
8165.008757	0.085529	0.334284	14644.891602
8165.009644	0.085584	0.334284	14720.803711
8165.010554	0.085635	0.334284	14798.731445
8165.011504	0.085518	0.334284	14879.972656
8166.010334	1.131116	0.338832	519.182068
8166.011231	1.610017	0.338832	1963.367432
8166.012109	1.601971	0.338832	3369.898437
8166.013022	1.560169	0.338832	4794.332031
8166.013988	1.515791	0.338832	6258.585937
8166.014925	1.473655	0.338832	7639.400391
8166.015796	1.436001	0.338832	8890.157227
8166.016765	1.397208	0.338832	10244.051758
8166.017710	1.359906	0.338832	11529.163086
8166.018608	1.324417	0.338832	12718.489258
8166.019490	1.265090	0.338832	13834.298828
8166.020460	0.266927	0.338832	14093.218750
8166.021411	0.085584	0.338832	14174.608398
8166.022302	0.085635	0.338832	14250.909180
8166.023213	0.085565	0.338832	14328.859375
8166.024172	0.085554	0.338832	14410.906250
8166.025093	0.085562	0.338832	14489.708008
8166.025957	0.085605	0.338832	14563.670898
8166.026901	0.085492	0.338832	14644.375000
8166.027825	0.085584	0.338832	14723.454102
8166.028747	0.085580	0.338832	14802.358398
8167.067582	1.080234	0.335351	459.099609
8167.068450	1.605535	0.335351	1852.703735
8167.069399	1.601067	0.335351	3372.116211
8167.070338	1.558334	0.335351	4835.391602
8167.071263	1.516322	0.335351	6237.989258
8167.072130	1.475841	0.335351	7517.543457
8167.073130	1.434661	0.335351	8952.204102
8167.074058	1.396644	0.335351	10248.290039
8167.074941	1.361741	0.335351	11450.707031
8167.075864	1.326691	0.335351	12675.242187
8167.076797	1.268500	0.335351	13858.751953
8167.077741	0.263998	0.335351	14107.965820
8167.078634	0.085609	0.335351	14184.415039
8167.079542	0.085540	0.335351	14262.084961
8167.080491	0.085576	0.335351	14343.296875
8167.081416	0.085507	0.335351	14422.390625
8167.082278	0.085510	0.335351	14496.100586
8167.083240	0.085540	0.335351	14578.389648
8167.084189	0.085558	0.335351	14659.583984
8167.085076	0.085580	0.335351	14735.493164
8167.085969	0.085591	0.335351	14811.925781
8168.086984	1.089994	0.350481	470.877380
8168.087845	1.605868	0.350481	1853.529541
8168.088899	1.598430	0.350481	3538.274902
8168.089774	1.556646	0.350481	4900.339844
8168.090651	1.516252	0.350481	6230.093262
8168.091529	1.475065	0.350481	7525.200195
8168.092574	1.431951	0.350481	9021.588867
8168.093471	1.395176	0.350481	10273.061523
8168.094348	1.360994	0.350481	11466.653320
8168.095353	1.322816	0.350481	12796.083984
8168.096284	1.220823	0.350481	13932.669922
8168.097208	0.221964	0.350481	14137.764648
8168.098068	0.085642	0.350481	14211.416992
8168.099115	0.085587	0.350481	14301.026367
8168.099997	0.085470	0.350481	14376.411133
8168.100860	0.085642	0.350481	14450.320312
8168.101818	0.085616	0.350481	14532.340820
8168.102763	0.085540	0.350481	14613.175781
8168.103683	0.085551	0.350481	14691.881836
8168.104558	0.085587	0.350481	14766.770508
8168.105588	0.085646	0.350481	14854.985352
8169.144383	1.208793	0.345079	675.715088
8169.145438	1.616217	0.345079	2380.824219
8169.146322	1.590831	0.345079	3787.119141
8169.147192	1.548120	0.345079	5133.983398
8169.148307	1.499271	0.345079	6805.670898
8169.149270	1.456945	0.345079	8208.708984
8169.150134	1.420334	0.345079	9435.877930
8169.151147	1.379037	0.345079	10832.841797
8169.152194	1.339039	0.345079	12234.815430
8169.153088	1.304883	0.345079	13401.380859
8169.154026	0.743463	0.345079	14098.749023
8169.155101	0.088744	0.345079	14194.148437
8169.156034	0.085602	0.345079	14274.014648
8169.156901	0.085613	0.345079	14348.241211
8169.157946	0.085708	0.345079	14437.805664
8169.158966	0.085584	0.345079	14525.100586
8169.159849	0.085594	0.345079	14600.680664
8169.160709	0.085558	0.345079	14674.260742
8169.161766	0.085679	0.345079	14764.823242
8169.162699	0.085573	0.345079	14844.662109
8169.163568	0.085602	0.345079	14919.049805
8170.162625	1.087097	0.352906	463.103394
8170.163548	1.607014	0.352906	1946.377441
8170.164527	1.598705	0.352906	3511.509277
8170.165458	1.555679	0.352906	4959.846191
8170.166326	1.514934	0.352906	6274.809082
8170.167302	1.472574	0.352906	7712.041992
8170.168203	1.432266	0.352906	9002.513672
8170.169123	1.394982	0.352906	10285.896484
8170.170001	1.359664	0.352906	11479.681641
8170.171086	1.318817	0.352906	12910.598633
8170.172121	1.056753	0.352906	14004.337891
8170.173018	0.138831	0.352906	14128.869141
8170.173953	0.085551	0.352906	14208.859375
8170.175010	0.085679	0.352906	14299.421875
8170.175951	0.085569	0.352906	14379.942383
8170.176820	0.085591	0.352906	14454.320312
8170.177863	0.085660	0.352906	14543.664062
8170.178879	0.085569	0.352906	14630.601562
8170.179766	0.085627	0.352906	14706.552734
8170.180716	0.085558	0.352906	14787.833008
8170.181757	0.085594	0.352906	14876.936523
8171.219917	1.112893	0.367284	478.544037
8171.220879	1.611559	0.367284	2028.863647
8171.221806	1.598397	0.367284	3510.577637
8171.222670	1.557085	0.367284	4855.898926
8171.223646	1.513682	0.367284	6333.251953
8171.224599	1.471476	0.367284	7735.568359
8171.225476	1.433353	0.367284	8992.619141
8171.226392	1.396289	0.367284	10271.620117
8171.227348	1.358719	0.367284	11570.555664
8171.228288	1.322461	0.367284	12813.668945
8171.229172	1.261315	0.367284	13928.670898
8171.230120	0.222429	0.367284	14139.534180
8171.231073	0.085525	0.367284	14221.039062
8171.231982	0.085602	0.367284	14298.851562
8171.232844	0.085580	0.367284	14372.621094
8171.233820	0.085605	0.367284	14456.171875
8171.234746	0.085587	0.367284	14535.425781
8171.235605	0.085605	0.367284	14608.960937
8171.236552	0.085594	0.367284	14690.018555
8171.237496	0.085518	0.367284	14770.747070
8171.238411	0.085598	0.367284	14849.069336
8172.240337	1.108707	0.367719	482.287689
8172.241214	1.608351	0.367719	1892.811401
8172.242131	1.602656	0.367719	3362.447266
8172.243077	1.559048	0.367719	4837.306641
8172.244005	1.515890	0.367719	6244.052734
8172.244896	1.475870	0.367719	7559.053223
8172.245817	1.436180	0.367719	8881.775391
8172.246769	1.397509	0.367719	10212.203125
8172.247667	1.362349	0.367719	11435.591797
8172.248634	1.325936	0.367719	12717.772461
8172.249562	1.265149	0.367719	13891.830078
8172.250477	0.266510	0.367719	14135.686523
8172.251367	0.085712	0.367719	14211.969727
8172.252275	0.085532	0.367719	14289.632812
8172.253225	0.085576	0.367719	14370.929687
8172.254139	0.085620	0.367719	14449.186523
8172.255006	0.085558	0.367719	14523.365234
8172.255976	0.085613	0.367719	14606.409180
8172.256903	0.085562	0.367719	14685.724609
8172.257800	0.085591	0.367719	14762.500000
8172.258658	0.085521	0.367719	14835.876953
8173.295580	1.117284	0.370373	494.956787
8173.296461	1.608582	0.370373	1912.117187
8173.297339	1.603319	0.370373	3319.831299
8173.298264	1.561703	0.370373	4764.406250
8173.299223	1.516377	0.370373	6218.611816
8173.300152	1.475076	0.370373	7588.957031
8173.301017	1.436451	0.370373	8831.487305
8173.302066	1.394568	0.370373	10294.388672
8173.302953	1.359108	0.370373	11499.916992
8173.303878	1.324666	0.370373	12725.232422
8173.304749	1.263190	0.370373	13825.470703
8173.305722	0.274453	0.370373	14092.513672
8173.306644	0.085605	0.370373	14171.442383
8173.307520	0.085594	0.370373	14246.422852
8173.308528	0.085591	0.370373	14332.698242
8173.309425	0.085609	0.370373	14409.489258
8173.310346	0.085616	0.370373	14488.341797
8173.311213	0.085521	0.370373	14562.488281
8173.312216	0.085551	0.370373	14648.295898
8173.313132	0.085565	0.370373	14726.673828
8173.314004	0.085627	0.370373	14801.340820
8174.317626	1.199557	0.376657	662.155457
8174.318640	1.617532	0.376657	2302.332764
8174.319540	1.592131	0.376657	3735.250977
8174.320418	1.551574	0.376657	5097.532227
8174.321412	1.506489	0.376657	6594.982422
8174.322340	1.464005	0.376657	7953.579102
8174.323263	1.425582	0.376657	9269.391602
8174.324133	1.388778	0.376657	10477.628906
8174.325175	1.349440	0.376657	11883.745117
8174.326065	1.315419	0.376657	13054.467773
8174.326939	1.132467	0.376657	14044.244141
8174.327938	0.163693	0.376657	14207.773437
8174.328878	0.085510	0.376657	14288.153320
8174.329774	0.085576	0.376657	14364.829102
8174.330652	0.085660	0.376657	14440.039062
8174.331667	0.085565	0.376657	14526.887695
8174.332568	0.085474	0.376657	14603.899414
8174.333445	0.085529	0.376657	14678.908203
8174.334370	0.085631	0.376657	14758.117187
8174.335349	0.085518	0.376657	14841.838867
8174.336266	0.085540	0.376657	14920.278320
8175.370168	1.090748	0.381890	459.205048
8175.371257	1.613837	0.381890	2216.673096
8175.372186	1.593578	0.381890	3697.106934
8175.373060	1.553005	0.381890	5054.433594
8175.374039	1.508536	0.381890	6531.290527
8175.375061	1.462474	0.381890	8025.939453
8175.375950	1.424813	0.381890	9292.598633
8175.376821	1.388214	0.381890	10501.733398
8175.377892	1.347385	0.381890	11944.783203
8175.378825	1.311903	0.381890	13168.789062
8175.379707	1.033953	0.381890	14080.735352
8175.380677	0.132667	0.381890	14209.422852
8175.381698	0.085444	0.381890	14296.661133
8175.382587	0.085518	0.381890	14372.686523
8175.383447	0.085459	0.381890	14446.181641
8175.384512	0.085584	0.381890	14537.328125
8175.385445	0.085547	0.381890	14617.143555
8175.386314	0.085499	0.381890	14691.442383
8175.387269	0.085573	0.381890	14773.164062
8175.388313	0.085573	0.381890	14862.501953
8175.389193	0.085584	0.381890	14937.815430
8176.395707	1.081044	0.388009	454.038361
8176.396645	1.605568	0.388009	1960.060669
8176.397711	1.594233	0.388009	3659.513428
8176.398656	1.550354	0.388009	5124.597656
8176.399525	1.509836	0.388009	6436.645508
8176.400572	1.463621	0.388009	7969.056152
8176.401577	1.421517	0.388009	9397.681641
8176.402465	1.385332	0.388009	10627.856445
8176.403428	1.348290	0.388009	11926.259766
8176.404471	1.308241	0.388009	13290.754883
8176.405402	0.855205	0.388009	14086.951172
8176.406259	0.104802	0.388009	14176.766602
8176.407318	0.085598	0.388009	14267.415039
8176.408311	0.085554	0.388009	14352.370117
8176.409188	0.085554	0.388009	14427.401367
8176.410142	0.085551	0.388009	14509.016602
8176.411185	0.085657	0.388009	14598.356445
8176.412109	0.085609	0.388009	14677.458984
8176.412977	0.085576	0.388009	14751.739258
8176.414051	0.085664	0.388009	14843.742187
8176.415037	0.085598	0.388009	14928.141602
8177.444325	1.130002	0.387917	515.281067
8177.445201	1.609519	0.387917	1925.219727
8177.446124	1.600323	0.387917	3402.318359
8177.447090	1.556946	0.387917	4906.328125
8177.448016	1.514271	0.387917	6308.543457
8177.448899	1.474021	0.387917	7610.104004
8177.449866	1.433917	0.387917	8996.702148
8177.450829	1.394583	0.387917	10339.685547
8177.451716	1.359262	0.387917	11545.350586
8177.452593	1.324845	0.387917	12707.239258
8177.453561	1.239305	0.387917	13906.886719
8177.454493	0.245665	0.387917	14135.846680
8177.455349	0.085613	0.387917	14209.130859
8177.456303	0.085642	0.387917	14290.833008
8177.457241	0.085507	0.387917	14371.038086
8177.458130	0.085532	0.387917	14447.076172
8177.459041	0.085499	0.387917	14524.965820
8177.459961	0.085510	0.387917	14603.634766
8177.460909	0.085565	0.387917	14684.750977
8177.461798	0.085638	0.387917	14760.883789
8177.462725	0.085540	0.387917	14840.178711
8178.472908	1.102943	0.397802	488.603790
8178.473842	1.611467	0.397802	1993.714111
8178.474709	1.601635	0.397802	3382.331055
8178.475692	1.557667	0.397802	4913.518066
8178.476645	1.513868	0.397802	6356.234375
8178.477535	1.473355	0.397802	7667.520020
8178.478454	1.434910	0.397802	8986.202148
8178.479379	1.395337	0.397802	10276.888672
8178.480313	1.358954	0.397802	11546.151367
8178.481204	1.324713	0.397802	12726.470703
8178.482122	1.245308	0.397802	13869.663086
8178.483094	0.248613	0.397802	14111.315430
8178.484013	0.085518	0.397802	14189.906250
8178.484888	0.085576	0.397802	14264.785156
8178.485865	0.085543	0.397802	14348.361328
8178.486779	0.085547	0.397802	14426.550781
8178.487656	0.085616	0.397802	14501.636719
8178.488664	0.085668	0.397802	14587.990234
8178.489613	0.085620	0.397802	14669.244141
8178.490537	0.085653	0.397802	14748.387695
8178.491395	0.085649	0.397802	14821.875000
8179.520446	1.087559	0.404650	464.387543
8179.521395	1.611090	0.404650	1993.312012
8179.522327	1.598848	0.404650	3483.437988
8179.523255	1.556675	0.404650	4928.032227
8179.524127	1.515114	0.404650	6249.211426
8179.525123	1.471556	0.404650	7714.881836
8179.526056	1.432053	0.404650	9050.987305
8179.526941	1.395612	0.404650	10286.103516
8179.527854	1.360335	0.404650	11528.088867
8179.528822	1.323204	0.404650	12808.951172
8179.529756	1.235295	0.404650	13962.716797
8179.530624	0.249672	0.404650	14179.431641
8179.531548	0.085532	0.404650	14258.463867
8179.532483	0.085565	0.404650	14338.467773
8179.533402	0.085565	0.404650	14417.102539
8179.534265	0.085540	0.404650	14490.922852
8179.535237	0.085642	0.404650	14574.166992
8179.536188	0.085598	0.404650	14655.571289
8179.537081	0.085558	0.404650	14731.974609
8179.537990	0.085594	0.404650	14809.780273
8179.538921	0.085554	0.404650	14889.431641
8180.550176	1.156750	0.415035	609.607483
8180.551198	1.617140	0.415035	2262.324463
8180.552084	1.594054	0.415035	3674.656250
8180.552947	1.552863	0.415035	5014.776367
8180.554020	1.504775	0.415035	6629.400391
8180.554950	1.463236	0.415035	7990.209961
8180.555823	1.426271	0.415035	9235.344727
8180.556791	1.386995	0.415035	10577.955078
8180.557838	1.346503	0.415035	11987.743164
8180.558722	1.312262	0.415035	13147.783203
8180.559589	1.035784	0.415035	14045.807617
8180.560636	0.111017	0.415035	14162.041992
8180.561575	0.085521	0.415035	14242.346680
8180.562449	0.085642	0.415035	14317.198242
8180.563380	0.085715	0.415035	14396.999023
8180.564423	0.085624	0.415035	14486.304687
8180.565315	0.085532	0.415035	14562.599609
8180.566176	0.085587	0.415035	14636.290039
8180.567228	0.085587	0.415035	14726.328125
8180.568180	0.085529	0.415035	14807.750977
8180.569051	0.085551	0.415035	14882.265625
8181.596176	1.129625	0.406406	574.979309
8181.597239	1.615726	0.406406	2292.496338
8181.598174	1.590894	0.406406	3779.981934
8181.599037	1.549728	0.406406	5117.396973
8181.600110	1.501465	0.406406	6728.468750
8181.601138	1.456263	0.406406	8225.507812
8181.602011	1.418998	0.406406	9464.292969
8181.602993	1.379663	0.406406	10819.122070
8181.604043	1.338878	0.406406	12224.944336
8181.604957	1.303964	0.406406	13416.767578
8181.605835	0.759668	0.406406	14083.755859
8181.606923	0.089363	0.406406	14180.982422
8181.607922	0.085503	0.406406	14266.399414
8181.608810	0.085576	0.406406	14342.390625
8181.609783	0.085686	0.406406	14425.762695
8181.610844	0.085580	0.406406	14516.562500
8181.611736	0.085584	0.406406	14592.903320
8181.612595	0.085587	0.406406	14666.422852
8181.613704	0.085602	0.406406	14761.355469
8181.614672	0.085499	0.406406	14844.119141
8181.615540	0.085591	0.406406	14918.412109
8182.626771	1.089086	0.426717	470.485016
8182.627644	1.607307	0.426717	1873.664062
8182.628573	1.601770	0.426717	3361.708496
8182.629531	1.558151	0.426717	4854.416992
8182.630456	1.516014	0.426717	6256.730469
8182.631320	1.476009	0.426717	7532.002930
8182.632297	1.435448	0.426717	8934.435547
8182.633250	1.396571	0.426717	10265.368164
8182.634122	1.361224	0.426717	11452.355469
8182.635016	1.326563	0.426717	12638.302734
8182.635969	1.262772	0.426717	13841.724609
8182.636930	0.265052	0.426717	14096.440430
8182.637822	0.085726	0.426717	14172.908203
8182.638728	0.085613	0.426717	14250.473633
8182.639680	0.085602	0.426717	14331.966797
8182.640596	0.085649	0.426717	14410.421875
8182.641461	0.085609	0.426717	14484.473633
8182.642421	0.085613	0.426717	14566.662109
8182.643356	0.085521	0.426717	14646.624023
8182.644260	0.085620	0.426717	14724.024414
8182.645116	0.085565	0.426717	14797.268555
8183.672768	1.090485	0.416445	469.998871
8183.673636	1.606670	0.416445	1864.588379
8183.674631	1.600686	0.416445	3457.270996
8183.675588	1.556752	0.416445	4947.082520
8183.676481	1.515110	0.416445	6300.075684
8183.677401	1.474482	0.416445	7656.599609
8183.678347	1.433287	0.416445	9012.489258
8183.679272	1.394700	0.416445	10302.585937
8183.680163	1.360203	0.416445	11514.526367
8183.681082	1.324321	0.416445	12731.578125
8183.682046	1.224836	0.416445	13912.320312
8183.682973	0.231691	0.416445	14127.097656
8183.683852	0.085660	0.416445	14202.393555
8183.684829	0.085573	0.416445	14285.998047
8183.685759	0.085620	0.416445	14365.625000
8183.686674	0.085686	0.416445	14444.027344
8183.687534	0.085671	0.416445	14517.705078
8183.688501	0.085620	0.416445	14600.500000
8183.689452	0.085653	0.416445	14681.956055
8183.690324	0.085719	0.416445	14756.703125
8183.691235	0.085649	0.416445	14834.729492
8184.704007	1.145277	0.426197	576.074402
8184.704913	1.613562	0.426197	2037.961670
8184.705838	1.598734	0.426197	3516.790771
8184.706707	1.558253	0.426197	4870.912598
8184.707677	1.512902	0.426197	6338.427246
8184.708605	1.471494	0.426197	7703.973633
8184.709536	1.432522	0.426197	9037.651367
8184.710404	1.395795	0.426197	10249.201172
8184.711354	1.358525	0.426197	11539.800781
8184.712310	1.322032	0.426197	12803.664062
8184.713206	1.252471	0.426197	13925.877930
8184.714127	0.257769	0.426197	14163.283203
8184.715071	0.085616	0.426197	14244.105469
8184.715956	0.085642	0.426197	14319.898437
8184.716845	0.085679	0.426197	14396.066406
8184.717841	0.085679	0.426197	14481.402344
8184.718762	0.085646	0.426197	14560.282227
8184.719638	0.085605	0.426197	14635.272461
8184.720585	0.085704	0.426197	14716.434570
8184.721497	0.085602	0.426197	14794.503906
8184.722426	0.085591	0.426197	14874.017578
8185.748412	1.077777	0.434375	451.588623
8185.749276	1.605187	0.434375	1838.470093
8185.750390	1.595651	0.434375	3616.024902
8185.751298	1.553317	0.434375	5026.436523
8185.752180	1.512715	0.434375	6360.650879
8185.753046	1.471937	0.434375	7635.348633
8185.754106	1.428853	0.434375	9149.932617
8185.754997	1.392081	0.434375	10390.277344
8185.755882	1.357885	0.434375	11592.004883
8185.756903	1.319271	0.434375	12938.980469
8185.757841	1.137693	0.434375	14006.136719
8185.758720	0.175679	0.434375	14160.558594
8185.759700	0.085591	0.434375	14244.437500
8185.760708	0.085635	0.434375	14330.757812
8185.761577	0.085529	0.434375	14405.082031
8185.762450	0.085638	0.434375	14479.844727
8185.763421	0.085693	0.434375	14563.052734
8185.764359	0.085547	0.434375	14643.295898
8185.765274	0.085543	0.434375	14721.568359
8185.766151	0.085554	0.434375	14796.599609
8185.767181	0.085653	0.434375	14884.822266
8186.780173	1.158479	0.439874	582.714905
8186.781078	1.613708	0.439874	2043.121094
8186.781946	1.599708	0.439874	3431.667969
8186.783041	1.550420	0.439874	5129.377930
8186.784035	1.504559	0.439874	6624.910156
8186.784930	1.465034	0.439874	7936.115723
8186.785943	1.422707	0.439874	9377.318359
8186.787018	1.379747	0.439874	10860.546875
8186.787905	1.344291	0.439874	12052.932617
8186.788786	1.309508	0.439874	13206.609375
8186.789897	0.711537	0.439874	13997.126953
8186.790844	0.090571	0.439874	14082.898437
8186.791702	0.085624	0.439874	14156.363281
8186.792727	0.085748	0.439874	14244.254883
8186.793772	0.085558	0.439874	14333.663086
8186.794640	0.085573	0.439874	14407.940430
8186.795550	0.085682	0.439874	14485.911133
8186.796612	0.085620	0.439874	14576.839844
8186.797556	0.085580	0.439874	14657.626953
8186.798425	0.085627	0.439874	14732.037109
8186.799449	0.085715	0.439874	14819.809570
8187.825638	1.153737	0.455097	538.794983
8187.826562	1.612738	0.455097	2028.964844
8187.827445	1.601320	0.455097	3442.930176
8187.828357	1.558901	0.455097	4864.648437
8187.829328	1.514356	0.455097	6335.087891
8187.830254	1.472772	0.455097	7698.875000
8187.831123	1.435243	0.455097	8946.101562
8187.832092	1.396421	0.455097	10299.233398
8187.833039	1.359221	0.455097	11586.416016
8187.833923	1.324080	0.455097	12756.902344
8187.834808	1.252731	0.455097	13865.569336
8187.835791	0.240311	0.455097	14101.794922
8187.836741	0.085529	0.455097	14183.046875
8187.837633	0.085598	0.455097	14259.400391
8187.838594	0.085726	0.455097	14341.783203
8187.839653	0.085671	0.455097	14432.508789
8187.840628	0.085605	0.455097	14515.974609
8187.841506	0.085697	0.455097	14591.216797
8187.842505	0.085759	0.455097	14676.890625
8187.843552	0.085671	0.455097	14766.588867
8187.844446	0.085602	0.455097	14843.117187
8188.856280	1.105170	0.460382	487.379822
8188.857151	1.608018	0.460382	1887.963135
8188.858112	1.600975	0.460382	3426.500488
8188.859046	1.557707	0.460382	4881.399414
8188.859964	1.515447	0.460382	6272.579590
8188.860837	1.475054	0.460382	7560.301270
8188.861802	1.434489	0.460382	8944.583008
8188.862756	1.395696	0.460382	10276.077148
8188.863659	1.360170	0.460382	11504.310547
8188.864576	1.325317	0.460382	12719.626953
8188.865524	1.254097	0.460382	13908.510742
8188.866454	0.238088	0.460382	14129.932617
8188.867340	0.085726	0.460382	14205.885742
8188.868269	0.085649	0.460382	14285.454102
8188.869214	0.085631	0.460382	14366.375977
8188.870087	0.085635	0.460382	14441.134766
8188.870987	0.085686	0.460382	14518.251953
8188.871946	0.085690	0.460382	14600.428711
8188.872867	0.085719	0.460382	14679.375977
8188.873737	0.085682	0.460382	14753.919922
8188.874666	0.085653	0.460382	14833.491211
8189.901764	1.089196	0.455427	465.086517
8189.902646	1.607662	0.455427	1883.044678
8189.903514	1.605037	0.455427	3276.216309
8189.904465	1.561604	0.455427	4761.301758
8189.905405	1.517809	0.455427	6188.041992
8189.906336	1.476317	0.455427	7562.493164
8189.907200	1.438151	0.455427	8805.055664
8189.908177	1.398937	0.455427	10171.816406
8189.909113	1.361660	0.455427	11446.330078
8189.910011	1.326892	0.455427	12637.878906
8189.910934	1.276106	0.455427	13815.724609
8189.911895	0.307566	0.455427	14111.295898
8189.912819	0.085730	0.455427	14190.510742
8189.913695	0.085646	0.455427	14265.536133
8189.914640	0.085646	0.455427	14346.471680
8189.915571	0.085631	0.455427	14426.194336
8189.916487	0.085693	0.455427	14504.689453
8189.917349	0.085664	0.455427	14578.532227
8189.918311	0.085620	0.455427	14660.898437
8189.919219	0.085594	0.455427	14738.618164
8189.920098	0.085646	0.455427	14813.900391
8190.932918	1.092004	0.485208	459.733795
8190.933892	1.612537	0.485208	2030.344360
8190.934818	1.599331	0.485208	3511.324707
8190.935703	1.558422	0.485208	4890.527832
8190.936649	1.516216	0.485208	6324.868164
8190.937585	1.472498	0.485208	7703.125977
8190.938518	1.432460	0.485208	9039.611328
8190.939406	1.396212	0.485208	10279.447266
8190.940345	1.359368	0.485208	11555.893555
8190.941303	1.322780	0.485208	12823.116211
8190.942206	1.241653	0.485208	13944.329102
8190.943087	0.256849	0.485208	14170.613281
8190.944041	0.085627	0.485208	14252.301758
8190.944988	0.085605	0.485208	14333.370117
8190.945877	0.085580	0.485208	14409.450195
8190.946780	0.085631	0.485208	14486.775391
8190.947696	0.085635	0.485208	14565.216797
8190.948639	0.085668	0.485208	14646.000977
8190.949522	0.085616	0.485208	14721.600586
8190.950444	0.085638	0.485208	14800.559570
8190.951399	0.085587	0.485208	14882.294922
8191.979572	1.169096	0.476918	635.987976
8191.980503	1.615693	0.476918	2140.198486
8191.981408	1.596097	0.476918	3584.666504
8191.982301	1.554873	0.476918	4973.167969
8191.983263	1.511276	0.476918	6427.015137
8191.984207	1.468381	0.476918	7813.166992
8191.985134	1.429394	0.476918	9138.215820
8191.986016	1.392858	0.476918	10366.716797
8191.986958	1.355486	0.476918	11643.583984
8191.987907	1.319594	0.476918	12895.877930
8191.988803	1.208503	0.476918	13978.697266
8191.989825	0.193367	0.476918	14176.318359
8191.990717	0.085543	0.476918	14252.623047
8191.991629	0.085554	0.476918	14330.648437
8191.992485	0.085580	0.476918	14403.904297
8191.993476	0.085594	0.476918	14488.728516
8191.994404	0.085631	0.476918	14568.194336
8191.995325	0.085627	0.476918	14647.057617
8191.996199	0.085627	0.476918	14721.896484
8191.997169	0.085584	0.476918	14804.912109
8191.998116	0.085620	0.476918	14885.994141
8193.008578	1.089089	0.491174	466.130249
8193.009571	1.609676	0.491174	2064.539062
8193.010486	1.597562	0.491174	3526.308594
8193.011420	1.555173	0.491174	4978.840332
8193.012294	1.513575	0.491174	6301.705078
8193.013326	1.468312	0.491174	7817.002930
8193.014230	1.430072	0.491174	9109.788086
8193.015113	1.393843	0.491174	10340.550781
8193.016096	1.356233	0.491174	11673.727539
8193.017041	1.319103	0.491174	12920.279297
8193.017964	1.178353	0.491174	14007.899414
8193.018834	0.198490	0.491174	14180.585937
8193.019869	0.085587	0.491174	14269.168945
8193.020747	0.085638	0.491174	14344.359375
8193.021610	0.085671	0.491174	14418.293945
8193.022532	0.085734	0.491174	14497.340820
8193.023514	0.085598	0.491174	14581.398437
8193.024431	0.085602	0.491174	14659.895508
8193.025308	0.085653	0.491174	14735.013672
8193.026368	0.085763	0.491174	14825.922852
8193.027266	0.085653	0.491174	14902.838867
8194.056658	1.121759	0.497733	493.573944
8194.057539	1.609098	0.497733	1911.189331
8194.058405	1.602510	0.497733	3298.962891
8194.059508	1.554316	0.497733	5013.374023
8194.060422	1.511642	0.497733	6395.014648
8194.061302	1.472380	0.497733	7690.709473
8194.062276	1.431295	0.497733	9084.791016
8194.063265	1.390426	0.497733	10459.921875
8194.064176	1.355028	0.497733	11694.352539
8194.065051	1.319934	0.497733	12849.294922
8194.066155	1.029163	0.497733	13985.490234
8194.067058	0.132971	0.497733	14105.563477
8194.067924	0.085609	0.497733	14179.701172
8194.068915	0.085752	0.497733	14264.681641
8194.069915	0.085616	0.497733	14350.297852
8194.070787	0.085620	0.497733	14424.958984
8194.071665	0.085693	0.497733	14500.197266
8194.072633	0.085745	0.497733	14583.198242
8194.073574	0.085613	0.497733	14663.759766
8194.074499	0.085649	0.497733	14742.985352
8194.075365	0.085671	0.497733	14817.176758
8195.085839	1.162577	0.517753	590.589050
8195.086769	1.615060	0.517753	2092.594727
8195.087637	1.599218	0.517753	3480.715576
8195.088699	1.550610	0.517753	5127.463867
8195.089713	1.503882	0.517753	6652.399902
8195.090611	1.464122	0.517753	7967.181641
8195.091567	1.424246	0.517753	9328.760742
8195.092621	1.381263	0.517753	10784.612305
8195.093547	1.345214	0.517753	12030.280273
8195.094412	1.311295	0.517753	13164.550781
8195.095476	0.800929	0.517753	14016.739258
8195.096473	0.091846	0.517753	14108.309570
8195.097359	0.085609	0.517753	14184.159180
8195.098338	0.085730	0.517753	14268.088867
8195.099372	0.085730	0.517753	14356.733398
8195.100277	0.085598	0.517753	14434.200195
8195.101150	0.085664	0.517753	14508.985352
8195.102147	0.085822	0.517753	14594.549805
8195.103148	0.085675	0.517753	14680.310547
8195.104020	0.085679	0.517753	14755.022461
8195.104885	0.085649	0.517753	14829.109375
8196.135456	1.178701	0.516541	604.673706
8196.136457	1.616975	0.516541	2223.265625
8196.137340	1.595669	0.516541	3632.241211
8196.138366	1.548669	0.516541	5221.175781
8196.139410	1.500718	0.516541	6787.925293
8196.140298	1.460636	0.516541	8084.970215
8196.141177	1.422107	0.516541	9335.001953
8196.142279	1.379176	0.516541	10854.853516
8196.143249	1.341757	0.516541	12156.357422
8196.144112	1.308508	0.516541	13285.599609
8196.145141	0.728774	0.516541	14035.508789
8196.146182	0.089077	0.516541	14128.238281
8196.147069	0.085613	0.516541	14204.176758
8196.147996	0.085767	0.516541	14283.682617
8196.149054	0.085715	0.516541	14374.369141
8196.149999	0.085573	0.516541	14455.235352
8196.150866	0.085737	0.516541	14529.569336
8196.151912	0.085748	0.516541	14619.261719
8196.152926	0.085664	0.516541	14706.125000
8196.153818	0.085646	0.516541	14782.521484
8196.154765	0.085723	0.516541	14863.701172
8197.161526	1.193602	0.539011	655.287659
8197.162568	1.617052	0.539011	2340.255859
8197.163463	1.591919	0.539011	3765.023437
8197.164327	1.549673	0.539011	5103.940918
8197.165435	1.500934	0.539011	6766.975586
8197.166401	1.457952	0.539011	8175.356934
8197.167274	1.421199	0.539011	9416.063477
8197.168296	1.380564	0.539011	10827.000000
8197.169351	1.339808	0.539011	12240.498047
8197.170227	1.305557	0.539011	13384.166016
8197.171138	0.765015	0.539011	14081.094727
8197.172221	0.089652	0.539011	14178.187500
8197.173172	0.085609	0.539011	14259.601562
8197.174043	0.085613	0.539011	14334.169922
8197.175056	0.085737	0.539011	14421.021484
8197.176087	0.085605	0.539011	14509.280273
8197.176972	0.085671	0.539011	14585.099609
8197.177896	0.085701	0.539011	14664.287109
8197.178969	0.085759	0.539011	14756.306641
8197.179916	0.085635	0.539011	14837.402344
8197.180777	0.085591	0.539011	14911.095703
8198.212551	1.094176	0.533258	472.684052
8198.213414	1.606736	0.533258	1859.297119
8198.214393	1.601060	0.533258	3426.734375
8198.215296	1.559253	0.533258	4834.739746
8198.216189	1.518098	0.533258	6190.401367
8198.217108	1.476936	0.533258	7547.705566
8198.218060	1.436539	0.533258	8915.291016
8198.218996	1.397758	0.533258	10223.591797
8198.219879	1.362792	0.533258	11426.936523
8198.220845	1.325449	0.533258	12707.320312
8198.221781	1.268771	0.533258	13894.889648
8198.222660	0.301362	0.533258	14159.787109
8198.223726	0.085638	0.533258	14251.078125
8198.224683	0.085701	0.533258	14333.093750
8198.225616	0.085686	0.533258	14413.039062
8198.226476	0.085616	0.533258	14486.668945
8198.227424	0.085638	0.533258	14567.854492
8198.228383	0.085642	0.533258	14649.985352
8198.229267	0.085613	0.533258	14725.666992
8198.230171	0.085580	0.533258	14803.031250
8198.231107	0.085605	0.533258	14883.158203
8199.237615	1.116229	0.551688	519.046631
8199.238507	1.610596	0.551688	1955.697998
8199.239442	1.601451	0.551688	3453.055176
8199.240345	1.557345	0.551688	4859.337891
8199.241300	1.513960	0.551688	6305.169434
8199.242191	1.474079	0.551688	7618.574219
8199.243110	1.434661	0.551688	8937.027344
8199.244082	1.395176	0.551688	10293.138672
8199.245003	1.358987	0.551688	11544.765625
8199.245883	1.324691	0.551688	12710.494141
8199.246855	1.247197	0.551688	13922.769531
8199.247801	0.220719	0.551688	14131.569336
8199.248715	0.085558	0.551688	14209.769531
8199.249573	0.085532	0.551688	14283.156250
8199.250542	0.085642	0.551688	14366.143555
8199.251469	0.085635	0.551688	14445.527344
8199.252328	0.085631	0.551688	14519.083984
8199.253271	0.085660	0.551688	14599.861328
8199.254232	0.085594	0.551688	14682.117187
8199.255119	0.085613	0.551688	14758.055664
8199.256005	0.085602	0.551688	14833.898437
8200.289286	1.179547	0.555257	587.414429
8200.290188	1.613489	0.555257	2042.781372
8200.291118	1.598712	0.555257	3529.583496
8200.291989	1.557385	0.555257	4886.066406
8200.292973	1.513099	0.555257	6374.956055
8200.293894	1.471868	0.555257	7730.545898
8200.294777	1.434093	0.555257	8996.849609
8200.295720	1.396593	0.555257	10313.836914
8200.296648	1.358525	0.555257	11574.548828
8200.297562	1.323464	0.555257	12784.195312
8200.298438	1.204072	0.555257	13838.962891
8200.299465	0.202742	0.555257	14047.178711
8200.300388	0.085525	0.555257	14126.118164
8200.301277	0.085554	0.555257	14202.175781
8200.302138	0.085569	0.555257	14275.850586
8200.303133	0.085602	0.555257	14361.024414
8200.304067	0.085580	0.555257	14440.956055
8200.304955	0.085591	0.555257	14516.960937
8200.305883	0.085649	0.555257	14596.443359
8200.306833	0.085580	0.555257	14677.744141
8200.307720	0.085584	0.555257	14753.656250
8201.314230	1.089463	0.564458	455.395477
8201.315300	1.614434	0.564458	2182.839355
8201.316233	1.594658	0.564458	3670.655518
8201.317119	1.553646	0.564458	5047.186035
8201.318096	1.509393	0.564458	6521.863281
8201.319122	1.462994	0.564458	8022.895508
8201.320011	1.425396	0.564458	9290.072266
8201.320878	1.389137	0.564458	10494.454102
8201.321966	1.347667	0.564458	11960.715820
8201.322904	1.311716	0.564458	13191.105469
8201.323776	1.025863	0.564458	14085.658203
8201.324774	0.130441	0.564458	14215.837891
8201.325788	0.085598	0.564458	14302.634766
8201.326672	0.085660	0.564458	14378.358398
8201.327536	0.085679	0.564458	14452.384766
8201.328486	0.085649	0.564458	14533.751953
8201.329437	0.085646	0.564458	14615.201172
8201.330347	0.085664	0.564458	14693.155273
8201.331224	0.085616	0.564458	14768.241211
8201.332252	0.085620	0.564458	14856.258789
8201.333143	0.085609	0.564458	14932.536133
8202.365455	1.149723	0.565561	581.759827
8202.366335	1.613115	0.565561	2001.301270
8202.367209	1.600019	0.565561	3399.718262
8202.368319	1.550486	0.565561	5120.757812
8202.369279	1.506431	0.565561	6566.931152
8202.370154	1.467206	0.565561	7850.736328
8202.371195	1.423638	0.565561	9332.743164
8202.372232	1.381710	0.565561	10765.576172
8202.373124	1.346763	0.565561	11966.888672
8202.374056	1.311346	0.565561	13189.063477
8202.375118	0.775195	0.565561	14012.321289
8202.376054	0.093629	0.565561	14099.958008
8202.376914	0.085668	0.565561	14173.631836
8202.377961	0.085719	0.565561	14263.379883
8202.378980	0.085613	0.565561	14350.619141
8202.379854	0.085562	0.565561	14425.400391
8202.380804	0.085653	0.565561	14506.770508
8202.381878	0.085660	0.565561	14598.769531
8202.382790	0.085657	0.565561	14676.888672
8202.383661	0.085569	0.565561	14751.418945
8202.384707	0.085697	0.565561	14841.057617
8203.390926	1.100325	0.582468	483.042572
8203.391796	1.607882	0.582468	1881.900024
8203.392668	1.604366	0.582468	3280.907715
8203.393624	1.561589	0.582468	4773.787109
8203.394578	1.517651	0.582468	6221.626465
8203.395476	1.476464	0.582468	7547.490723
8203.396363	1.438385	0.582468	8823.337891
8203.397310	1.398929	0.582468	10148.124023
8203.398269	1.362015	0.582468	11454.296875
8203.399164	1.327310	0.582468	12642.239258
8203.400094	1.280306	0.582468	13832.923828
8203.401055	0.307855	0.582468	14128.772461
8203.401971	0.085704	0.582468	14207.277344
8203.402832	0.085649	0.582468	14281.021484
8203.403756	0.085631	0.582468	14360.144531
8203.404694	0.085624	0.582468	14440.459961
8203.405620	0.085594	0.582468	14519.720703
8203.406484	0.085620	0.582468	14593.696289
8203.407456	0.085554	0.582468	14676.854492
8203.408392	0.085584	0.582468	14756.960937
8203.409283	0.085613	0.582468	14833.242187
8204.442611	1.168857	0.591032	554.038391
8204.443556	1.614426	0.591032	2079.671143
8204.444481	1.598221	0.591032	3558.025879
8204.445352	1.556935	0.591032	4914.116211
8204.446325	1.512964	0.591032	6386.229980
8204.447281	1.470505	0.591032	7792.033203
8204.448170	1.432365	0.591032	9065.405273
8204.449091	1.395073	0.591032	10350.267578
8204.450022	1.357427	0.591032	11614.032227
8204.450962	1.321190	0.591032	12855.951172
8204.451854	1.243389	0.591032	13965.053711
8204.452768	0.230870	0.591032	14176.069336
8204.453730	0.085466	0.591032	14258.288086
8204.454653	0.085576	0.591032	14337.274414
8204.455513	0.085562	0.591032	14410.857422
8204.456471	0.085554	0.591032	14492.818359
8204.457423	0.085558	0.591032	14574.269531
8204.458316	0.085620	0.591032	14650.728516
8204.459209	0.085492	0.591032	14727.073242
8204.460133	0.085602	0.591032	14806.168945
8204.461080	0.085543	0.591032	14887.178711
8205.468094	1.098124	0.613184	468.898865
8205.469070	1.612273	0.613184	2042.477295
8205.469987	1.598884	0.613184	3508.654297
8205.470873	1.558026	0.613184	4889.065430
8205.471809	1.515787	0.613184	6307.842285
8205.472751	1.471604	0.613184	7694.093262
8205.473700	1.431691	0.613184	9052.767578
8205.474599	1.394967	0.613184	10306.842773
8205.475520	1.358741	0.613184	11558.244141
8205.476479	1.322201	0.613184	12826.234375
8205.477370	1.254122	0.613184	13943.657227
8205.478361	0.250719	0.613184	14192.120117
8205.479277	0.085646	0.613184	14270.571289
8205.480192	0.085565	0.613184	14348.863281
8205.481060	0.085660	0.613184	14423.216797
8205.482002	0.085660	0.613184	14503.909180
8205.482937	0.085605	0.613184	14583.950195
8205.483857	0.085635	0.613184	14662.734375
8205.484732	0.085660	0.613184	14737.687500
8205.485702	0.085573	0.613184	14820.692383
8205.486630	0.085627	0.613184	14900.154297
8206.519745	1.086119	0.606034	464.859100
8206.520609	1.606212	0.606034	1852.626465
8206.521638	1.599719	0.606034	3498.737305
8206.522538	1.557070	0.606034	4900.100586
8206.523464	1.514978	0.606034	6302.970215
8206.524325	1.474233	0.606034	7572.285156
8206.525346	1.431775	0.606034	9034.126953
8206.526253	1.394777	0.606034	10299.189453
8206.527137	1.360192	0.606034	11501.598633
8206.528129	1.322311	0.606034	12813.331055
8206.529079	1.188347	0.606034	13942.260742
8206.530005	0.197655	0.606034	14125.289062
8206.530871	0.085638	0.606034	14199.452148
8206.531895	0.085671	0.606034	14287.179687
8206.532780	0.085576	0.606034	14362.915039
8206.533658	0.085653	0.606034	14438.118164
8206.534632	0.085664	0.606034	14521.554687
8206.535589	0.085686	0.606034	14603.556641
8206.536500	0.085616	0.606034	14681.553711
8206.537361	0.085679	0.606034	14755.323242
8206.538370	0.085657	0.606034	14841.750977
8207.544873	1.185227	0.628202	618.688538
8207.545765	1.614390	0.628202	2058.724121
8207.546630	1.598650	0.628202	3441.556152
8207.547744	1.549409	0.628202	5167.597656
8207.548714	1.504622	0.628202	6627.080566
8207.549576	1.466115	0.628202	7890.871094
8207.550643	1.421583	0.628202	9407.700195
8207.551674	1.379982	0.628202	10830.460937
8207.552564	1.344990	0.628202	12027.501953
8207.553491	1.309332	0.628202	13241.252930
8207.554561	0.724534	0.628202	14016.503906
8207.555498	0.091194	0.628202	14101.952148
8207.556354	0.085602	0.628202	14175.227539
8207.557381	0.085649	0.628202	14263.189453
8207.558408	0.085638	0.628202	14351.139648
8207.559293	0.085624	0.628202	14426.916992
8207.560232	0.085693	0.628202	14507.382812
8207.561287	0.085624	0.628202	14597.715820
8207.562223	0.085660	0.628202	14677.893555
8207.563096	0.085668	0.628202	14752.681641
8207.564044	0.085671	0.628202	14833.898437
8208.595395	1.086782	0.624608	468.403137
8208.596259	1.606608	0.624608	1856.512207
8208.597290	1.598507	0.624608	3504.572998
8208.598322	1.551149	0.624608	5105.358398
8208.599216	1.509748	0.624608	6455.073242
8208.600175	1.467583	0.624608	7862.485352
8208.601218	1.422924	0.624608	9346.594727
8208.602159	1.384702	0.624608	10649.599609
8208.603035	1.349857	0.624608	11832.074219
8208.604107	1.309629	0.624608	13235.996094
8208.605109	0.811824	0.624608	14049.443359
8208.606000	0.098683	0.624608	14137.370117
8208.606983	0.085704	0.624608	14221.617187
8208.608030	0.085646	0.624608	14311.288086
8208.608929	0.085730	0.624608	14388.359375
8208.609787	0.085748	0.624608	14461.931641
8208.610870	0.085767	0.624608	14554.816406
8208.611862	0.085605	0.624608	14639.737305
8208.612732	0.085660	0.624608	14714.261719
8208.613717	0.085686	0.624608	14798.662109
8208.614762	0.085605	0.624608	14888.120117
8209.621435	1.079330	0.641588	452.239197
8209.622358	1.606157	0.641588	1934.722412
8209.623301	1.600206	0.641588	3443.717041
8209.624248	1.556697	0.641588	4917.909180
8209.625146	1.515428	0.641588	6278.763672
8209.626074	1.473135	0.641588	7645.833008
8209.627040	1.432617	0.641588	9029.741211
8209.627938	1.395740	0.641588	10283.115234
8209.628867	1.359719	0.641588	11546.294922
8209.629819	1.322974	0.641588	12805.765625
8209.630727	1.238368	0.641588	13930.204102
8209.631613	0.253755	0.641588	14155.031250
8209.632547	0.085624	0.641588	14235.003906
8209.633472	0.085584	0.641588	14314.168945
8209.634387	0.085613	0.641588	14392.504883
8209.635247	0.085635	0.641588	14466.150391
8209.636218	0.085627	0.641588	14549.294922
8209.637162	0.085649	0.641588	14630.148437
8209.638048	0.085627	0.641588	14706.014648
8209.638963	0.085635	0.641588	14784.370117
8209.639894	0.085664	0.641588	14864.123047
8210.672091	1.132786	0.649225	508.620758
8210.673030	1.611735	0.649225	2022.039551
8210.673956	1.599500	0.649225	3503.176270
8210.674823	1.558110	0.649225	4854.058105
8210.675788	1.514125	0.649225	6315.188477
8210.676741	1.471538	0.649225	7717.564453
8210.677637	1.433412	0.649225	9001.901367
8210.678551	1.396190	0.649225	10278.019531
8210.679508	1.359056	0.649225	11578.636719
8210.680431	1.322673	0.649225	12799.463867
8210.681319	1.264687	0.649225	13922.505859
8210.682267	0.247456	0.649225	14157.093750
8210.683234	0.085540	0.649225	14239.810547
8210.684112	0.085627	0.649225	14314.991211
8210.685045	0.085602	0.649225	14394.857422
8210.685980	0.085624	0.649225	14474.916016
8210.686900	0.085602	0.649225	14553.669922
8210.687775	0.085686	0.649225	14628.645508
8210.688699	0.085554	0.649225	14707.697266
8210.689647	0.085591	0.649225	14788.836914
8210.690571	0.085616	0.649225	14867.946289
8211.699187	1.159665	0.660408	555.479736
8211.700076	1.611581	0.660408	1988.175171
8211.700938	1.601627	0.660408	3368.777832
8211.701934	1.557843	0.660408	4920.389648
8211.702833	1.515092	0.660408	6282.457031
8211.703725	1.475175	0.660408	7598.312500
8211.704645	1.436074	0.660408	8919.500977
8211.705609	1.396626	0.660408	10265.848633
8211.706539	1.360137	0.660408	11530.775391
8211.707423	1.325698	0.660408	12702.692383
8211.708394	1.261941	0.660408	13928.037109
8211.709322	0.250302	0.660408	14160.317383
8211.710242	0.085605	0.660408	14239.074219
8211.711103	0.085551	0.660408	14312.733398
8211.712070	0.085708	0.660408	14395.613281
8211.713019	0.085609	0.660408	14476.856445
8211.713888	0.085631	0.660408	14551.269531
8211.714792	0.085536	0.660408	14628.593750
8211.715744	0.085638	0.660408	14710.121094
8211.716666	0.085573	0.660408	14789.018555
8211.717542	0.085620	0.660408	14864.021484
8212.749254	1.090122	0.670910	470.932709
8212.750116	1.606421	0.670910	1855.667480
8212.751158	1.598243	0.670910	3521.037109
8212.752065	1.556327	0.670910	4932.625488
8212.752944	1.515645	0.670910	6264.876953
8212.753876	1.473538	0.670910	7638.213867
8212.754870	1.431570	0.670910	9061.194336
8212.755784	1.394172	0.670910	10335.467773
8212.756669	1.359239	0.670910	11538.394531
8212.757753	1.318674	0.670910	12967.837891
8212.758651	1.164324	0.670910	14013.400391
8212.759525	0.186819	0.670910	14176.679687
8212.760406	0.085620	0.670910	14252.111328
8212.761448	0.085605	0.670910	14341.312500
8212.762342	0.085573	0.670910	14417.814453
8212.763207	0.085591	0.670910	14491.850586
8212.764187	0.085668	0.670910	14575.804687
8212.765111	0.085569	0.670910	14654.870117
8212.766032	0.085624	0.670910	14733.729492
8212.766899	0.085660	0.670910	14807.997070
8212.767919	0.085627	0.670910	14895.336914
8213.777435	1.177482	0.687672	602.870605
8213.778353	1.614631	0.687672	2085.102051
8213.779218	1.598994	0.687672	3468.231934
8213.780256	1.551551	0.687672	5078.742187
8213.781263	1.504911	0.687672	6594.187500
8213.782163	1.465261	0.687672	7912.922852
8213.783133	1.424572	0.687672	9294.756836
8213.784194	1.381417	0.687672	10760.440430
8213.785106	1.345990	0.687672	11987.983398
8213.785972	1.311317	0.687672	13123.583984
8213.787082	0.775558	0.687672	13984.453125
8213.788048	0.091626	0.687672	14072.963867
8213.788931	0.085536	0.687672	14148.492187
8213.789926	0.085679	0.687672	14233.742187
8213.790987	0.085671	0.687672	14324.639648
8213.791879	0.085668	0.687672	14401.055664
8213.792741	0.085638	0.687672	14474.875977
8213.793805	0.085719	0.687672	14566.081055
8213.794778	0.085638	0.687672	14649.407227
8213.795653	0.085635	0.687672	14724.337891
8213.796517	0.085668	0.687672	14798.354492
8214.824430	1.144303	0.689239	535.533813
8214.825309	1.610819	0.689239	1951.443848
8214.826278	1.598943	0.689239	3500.819336
8214.827336	1.550017	0.689239	5140.737305
8214.828262	1.507295	0.689239	6536.492187
8214.829128	1.467697	0.689239	7807.517578
8214.830218	1.422480	0.689239	9358.021484
8214.831219	1.381615	0.689239	10741.017578
8214.832113	1.347228	0.689239	11945.439453
8214.833103	1.309673	0.689239	13242.015625
8214.834159	0.747887	0.689239	14031.784180
8214.835058	0.092791	0.689239	14115.203125
8214.835916	0.085584	0.689239	14188.633789
8214.837029	0.085649	0.689239	14283.961914
8214.837994	0.085525	0.689239	14366.493164
8214.838853	0.085605	0.689239	14440.028320
8214.839929	0.085715	0.689239	14532.257812
8214.840967	0.085609	0.689239	14621.120117
8214.841844	0.085580	0.689239	14696.173828
8214.842757	0.085616	0.689239	14774.341797
8214.843839	0.085642	0.689239	14867.006836
8215.854534	1.104576	0.705139	479.386139
8215.855418	1.608549	0.705139	1901.343140
8215.856410	1.599206	0.705139	3487.755859
8215.857472	1.550779	0.705139	5134.682617
8215.858366	1.509086	0.705139	6483.805176
8215.859269	1.467891	0.705139	7809.310547
8215.860348	1.422946	0.705139	9344.668945
8215.861301	1.384340	0.705139	10663.944336
8215.862175	1.350289	0.705139	11844.097656
8215.863226	1.310413	0.705139	13221.340820
8215.864265	0.787412	0.705139	14039.461914
8215.865156	0.096116	0.705139	14125.100586
8215.866096	0.085627	0.705139	14205.590820
8215.867142	0.085675	0.705139	14295.207031
8215.868076	0.085668	0.705139	14375.220703
8215.868937	0.085543	0.705139	14448.873047
8215.870000	0.085616	0.705139	14539.883789
8215.871008	0.085594	0.705139	14626.163086
8215.871889	0.085576	0.705139	14701.555664
8215.872857	0.085591	0.705139	14784.407227
8215.873911	0.085635	0.705139	14874.666016
8216.901069	1.107587	0.708397	488.445709
8216.901942	1.608127	0.708397	1892.340942
8216.902962	1.598642	0.708397	3522.956299
8216.904011	1.550856	0.708397	5149.803711
8216.904883	1.509225	0.708397	6465.847656
8216.905759	1.468015	0.708397	7751.829102
8216.906876	1.422770	0.708397	9341.062500
8216.907840	1.383973	0.708397	10675.212891
8216.908709	1.350117	0.708397	11848.464844
8216.909725	1.311054	0.708397	13180.495117
8216.910781	0.800607	0.708397	14025.935547
8216.911671	0.096841	0.708397	14112.124023
8216.912605	0.085642	0.708397	14192.113281
8216.913682	0.085660	0.708397	14284.369141
8216.914616	0.085554	0.708397	14364.276367
8216.915485	0.085569	0.708397	14438.635742
8216.916541	0.085715	0.708397	14529.151367
8216.917548	0.085613	0.708397	14615.363281
8216.918441	0.085594	0.708397	14691.798828
8216.919411	0.085679	0.708397	14774.907227
8216.920459	0.085638	0.708397	14864.656250
8217.932286	1.173241	0.727879	558.462646
8217.933221	1.613577	0.727879	2067.156738
8217.934101	1.600283	0.727879	3475.405762
8217.935031	1.557048	0.727879	4923.460937
8217.935983	1.513418	0.727879	6364.234863
8217.936891	1.471937	0.727879	7700.753906
8217.937774	1.434287	0.727879	8967.229492
8217.938719	1.395824	0.727879	10286.283203
8217.939677	1.358701	0.727879	11587.918945
8217.940574	1.323702	0.727879	12775.280273
8217.941479	1.261710	0.727879	13917.127930
8217.942422	0.240447	0.727879	14143.869141
8217.943362	0.085573	0.727879	14224.307617
8217.944243	0.085726	0.727879	14299.832031
8217.945167	0.085642	0.727879	14378.964844
8217.946127	0.085686	0.727879	14461.223633
8217.947031	0.085679	0.727879	14538.676758
8217.947910	0.085767	0.727879	14614.065430
8217.948822	0.085627	0.727879	14692.157227
8217.949767	0.085693	0.727879	14773.137695
8217.950656	0.085638	0.727879	14849.270508
8218.977208	1.085819	0.724451	457.129852
8218.978177	1.610196	0.724451	2017.410278
8218.979096	1.599653	0.724451	3487.491699
8218.979973	1.558997	0.724451	4854.731445
8218.980887	1.516754	0.724451	6241.044922
8218.981841	1.473955	0.724451	7647.198242
8218.982770	1.434379	0.724451	8979.736328
8218.983652	1.397662	0.724451	10212.474609
8218.984624	1.360243	0.724451	11534.630859
8218.985573	1.323201	0.724451	12790.348633
8218.986486	1.256829	0.724451	13937.833008
8218.987359	0.275647	0.724451	14178.472656
8218.988326	0.085682	0.724451	14261.327148
8218.989283	0.085660	0.724451	14343.303711
8218.990151	0.085609	0.724451	14417.612305
8218.991062	0.085565	0.724451	14495.562500
8218.992007	0.085649	0.724451	14576.500977
8218.992929	0.085653	0.724451	14655.472656
8218.993804	0.085668	0.724451	14730.431641
8218.994737	0.085598	0.724451	14810.294922
8218.995676	0.085646	0.724451	14890.715820
8220.009911	1.088785	0.750103	459.467438
8220.010893	1.612921	0.750103	2043.355957
8220.011819	1.598946	0.750103	3523.980469
8220.012699	1.558000	0.750103	4895.020996
8220.013582	1.516106	0.750103	6233.742676
8220.014560	1.472845	0.750103	7674.185547
8220.015500	1.433203	0.750103	9021.396484
8220.016380	1.396849	0.750103	10250.624023
8220.017286	1.360833	0.750103	11483.538086
8220.018238	1.324061	0.750103	12744.044922
8220.019167	1.257678	0.750103	13912.427734
8220.020051	0.281060	0.750103	14160.884766
8220.021021	0.085741	0.750103	14244.053711
8220.021942	0.085627	0.750103	14322.916992
8220.022854	0.085638	0.750103	14401.019531
8220.023713	0.085664	0.750103	14474.604492
8220.024687	0.085627	0.750103	14558.005859
8220.025626	0.085701	0.750103	14638.478516
8220.026513	0.085613	0.750103	14714.416992
8220.027430	0.085748	0.750103	14793.047852
8220.028352	0.085624	0.750103	14871.993164
8221.053882	1.097552	0.745652	463.167114
8221.054869	1.611958	0.745652	2054.169678
8221.055792	1.598705	0.745652	3529.774170
8221.056671	1.558099	0.745652	4899.343750
8221.057601	1.515516	0.745652	6308.773926
8221.058535	1.472706	0.745652	7684.281250
8221.059458	1.433412	0.745652	9007.320312
8221.060341	1.397003	0.745652	10240.874023
8221.061294	1.360375	0.745652	11537.311523
8221.062228	1.323534	0.745652	12773.492187
8221.063145	1.263779	0.745652	13932.377930
8221.064015	0.284165	0.745652	14179.601562
8221.064982	0.085726	0.745652	14262.499023
8221.065906	0.085605	0.745652	14341.598633
8221.066766	0.085609	0.745652	14415.222656
8221.067730	0.085719	0.745652	14497.855469
8221.068636	0.085657	0.745652	14575.460937
8221.069544	0.085657	0.745652	14653.237305
8221.070415	0.085712	0.745652	14727.892578
8221.071377	0.085638	0.745652	14810.276367
8221.072320	0.085642	0.745652	14891.037109
8222.087177	1.190131	0.773096	586.734375
8222.088106	1.614368	0.773096	2086.481934
8222.088985	1.599778	0.773096	3492.686523
8222.089969	1.555206	0.773096	5023.009766
8222.090910	1.510594	0.773096	6444.479004
8222.091840	1.469388	0.773096	7811.010254
8222.092706	1.431801	0.773096	9050.949219
8222.093737	1.390686	0.773096	10484.746094
8222.094615	1.355706	0.773096	11675.055664
8222.095522	1.320904	0.773096	12873.116211
8222.096405	1.184854	0.773096	13919.341797
8222.097398	0.192111	0.773096	14110.107422
8222.098322	0.085543	0.773096	14189.149414
8222.099206	0.085598	0.773096	14264.818359
8222.100114	0.085616	0.773096	14342.557617
8222.101060	0.085638	0.773096	14423.571289
8222.101986	0.085616	0.773096	14502.852539
8222.102848	0.085627	0.773096	14576.663086
8222.103866	0.085562	0.773096	14663.764648
8222.104757	0.085657	0.773096	14740.084961
8222.105660	0.085690	0.773096	14817.462891
8223.131080	1.092887	0.769153	469.941376
8223.131950	1.606718	0.769153	1867.785767
8223.133037	1.596259	0.769153	3602.918945
8223.133979	1.552592	0.769153	5065.459961
8223.134852	1.511997	0.769153	6385.433594
8223.135806	1.469791	0.769153	7787.614258
8223.136858	1.425297	0.769153	9287.026367
8223.137735	1.388701	0.769153	10504.916992
8223.138605	1.354563	0.769153	11683.386719
8223.139653	1.314463	0.769153	13060.943359
8223.140611	1.025215	0.769153	14043.099609
8223.141488	0.131968	0.769153	14158.834961
8223.142424	0.085737	0.769153	14239.084961
8223.143474	0.085642	0.769153	14329.008789
8223.144365	0.085646	0.769153	14405.319336
8223.145225	0.085682	0.769153	14479.005859
8223.146257	0.085730	0.769153	14567.479492
8223.147209	0.085675	0.769153	14649.041992
8223.148080	0.085653	0.769153	14723.645508
8223.148963	0.085701	0.769153	14799.319336
8223.150068	0.085657	0.769153	14893.969727
8224.163795	1.098886	0.781153	482.410736
8224.164666	1.608450	0.781153	1883.370483
8224.165593	1.601675	0.781153	3368.123047
8224.166670	1.553430	0.781153	5041.166992
8224.167573	1.511107	0.781153	6405.696777
8224.168446	1.471820	0.781153	7690.595703
8224.169466	1.428549	0.781153	9147.714844
8224.170439	1.388895	0.781153	10499.110352
8224.171321	1.354431	0.781153	11693.718750
8224.172226	1.319037	0.781153	12887.447266
8224.173293	1.055940	0.781153	14014.134766
8224.174175	0.140486	0.781153	14138.042969
8224.175033	0.085562	0.781153	14211.455078
8224.176089	0.085704	0.781153	14301.958984
8224.177055	0.085551	0.781153	14384.600586
8224.177922	0.085602	0.781153	14458.817383
8224.178777	0.085704	0.781153	14532.094727
8224.179861	0.085671	0.781153	14624.962891
8224.180758	0.085624	0.781153	14701.767578
8224.181636	0.085631	0.781153	14776.952148
8224.182613	0.085748	0.781153	14860.728516
8225.208261	1.089701	0.790495	466.391998
8225.209135	1.605905	0.790495	1869.952515
8225.210185	1.597679	0.790495	3547.515869
8225.211068	1.556514	0.790495	4921.917480
8225.211939	1.516439	0.790495	6242.736328
8225.212924	1.472076	0.790495	7692.731445
8225.213860	1.431720	0.790495	9032.821289
8225.214787	1.394081	0.790495	10325.133789
8225.215666	1.359305	0.790495	11519.962891
8225.216705	1.319916	0.790495	12891.355469
8225.217599	1.205559	0.790495	13969.125000
8225.218480	0.216387	0.790495	14159.761719
8225.219449	0.085715	0.790495	14242.820312
8225.220406	0.085580	0.790495	14324.720703
8225.221331	0.085558	0.790495	14403.861328
8225.222194	0.085653	0.790495	14477.780273
8225.223232	0.085660	0.790495	14566.695312
8225.224102	0.085631	0.790495	14641.194336
8225.224978	0.085638	0.790495	14716.213867
8225.225879	0.085690	0.790495	14793.419922
8225.226900	0.085499	0.790495	14880.714844
8226.241473	1.091140	0.808953	468.099121
8226.242508	1.611716	0.808953	2136.225586
8226.243488	1.593131	0.808953	3697.494141
8226.244406	1.550819	0.808953	5121.145996
8226.245274	1.508914	0.808953	6430.882812
8226.246374	1.462584	0.808953	8039.725586
8226.247266	1.424187	0.808953	9310.100586
8226.248128	1.388800	0.808953	10507.246094
8226.249224	1.346682	0.808953	11983.209961
8226.250188	1.309757	0.808953	13245.815430
8226.251065	0.965925	0.808953	14092.931641
8226.251927	0.119982	0.808953	14196.355469
8226.253038	0.085646	0.808953	14291.507812
8226.253947	0.085635	0.808953	14369.349609
8226.254813	0.085573	0.808953	14443.455078
8226.255844	0.085723	0.808953	14531.834961
8226.256826	0.085580	0.808953	14615.874023
8226.257706	0.085565	0.808953	14691.171875
8226.258565	0.085605	0.808953	14764.707031
8226.259666	0.085631	0.808953	14858.987305
8226.260554	0.085562	0.808953	14934.965820
8227.285528	1.172018	0.803603	593.041016
8227.286541	1.616668	0.803603	2230.725098
8227.287419	1.595479	0.803603	3631.555176
8227.288406	1.550577	0.803603	5161.975098
8227.289452	1.501915	0.803603	6732.978516
8227.290369	1.460903	0.803603	8072.626953
8227.291233	1.423169	0.803603	9302.245117
8227.292325	1.380406	0.803603	10809.649414
8227.293311	1.341764	0.803603	12132.628906
8227.294195	1.308080	0.803603	13288.971680
8227.295186	0.767153	0.803603	14049.220703
8227.296244	0.090084	0.803603	14144.530273
8227.297141	0.085620	0.803603	14221.331055
8227.298002	0.085671	0.803603	14295.093750
8227.299103	0.085693	0.803603	14389.442383
8227.300068	0.085609	0.803603	14472.055664
8227.300937	0.085532	0.803603	14546.382812
8227.302005	0.085704	0.803603	14637.915039
8227.303041	0.085627	0.803603	14726.625000
8227.303935	0.085587	0.803603	14803.139648
8227.304821	0.085649	0.803603	14879.025391
8228.318759	1.186853	0.829678	614.789856
8228.319775	1.617407	0.829678	2258.075684
8228.320660	1.594365	0.829678	3669.088867
8228.321650	1.549065	0.829678	5202.663086
8228.322702	1.500212	0.829678	6780.886719
8228.323614	1.459761	0.829678	8112.188477
8228.324479	1.421898	0.829678	9342.130859
8228.325563	1.379454	0.829678	10837.458984
8228.326558	1.340585	0.829678	12171.340820
8228.327450	1.306798	0.829678	13337.004883
8228.328451	0.720527	0.829678	14058.252930
8228.329512	0.089059	0.829678	14152.744141
8228.330383	0.085631	0.829678	14227.329102
8228.331249	0.085704	0.829678	14301.548828
8228.332333	0.085679	0.829678	14394.424805
8228.333298	0.085668	0.829678	14477.093750
8228.334167	0.085554	0.829678	14551.440430
8228.335224	0.085693	0.829678	14642.018555
8228.336265	0.085719	0.829678	14731.251953
8228.337147	0.085660	0.829678	14806.804687
8228.338046	0.085675	0.829678	14883.826172
8229.362628	1.090170	0.828885	468.772949
8229.363489	1.606388	0.828885	1851.873047
8229.364457	1.601056	0.828885	3401.695068
8229.365432	1.556774	0.828885	4919.549316
8229.366326	1.515095	0.828885	6274.044434
8229.367225	1.474380	0.828885	7599.511719
8229.368170	1.433657	0.828885	8954.317383
8229.369117	1.395421	0.828885	10275.781250
8229.370009	1.360382	0.828885	11489.242187
8229.370924	1.325163	0.828885	12701.766602
8229.371889	1.253716	0.828885	13911.602539
8229.372789	0.267363	0.828885	14152.229492
8229.373710	0.085847	0.828885	14231.294922
8229.374638	0.085638	0.828885	14310.767578
8229.375566	0.085708	0.828885	14390.304687
8229.376457	0.085620	0.828885	14466.591797
8229.377370	0.085712	0.828885	14544.846680
8229.378327	0.085664	0.828885	14626.827148
8229.379245	0.085591	0.828885	14705.399414
8229.380118	0.085646	0.828885	14780.167969
8229.381087	0.085613	0.828885	14863.126953
8230.395855	1.104463	0.864753	480.441345
8230.396793	1.608076	0.864753	1988.816895
8230.397758	1.598763	0.864753	3531.623535
8230.398667	1.555642	0.864753	4945.702148
8230.399552	1.514736	0.864753	6286.243652
8230.400497	1.472567	0.864753	7677.819336
8230.401429	1.431940	0.864753	9012.386719
8230.402352	1.394656	0.864753	10299.654297
8230.403217	1.360082	0.864753	11476.125000
8230.404195	1.322780	0.864753	12769.803711
8230.405126	1.250742	0.864753	13934.244141
8230.405993	0.268711	0.864753	14167.216797
8230.406957	0.085671	0.864753	14249.803711
8230.407898	0.085675	0.864753	14330.423828
8230.408778	0.085712	0.864753	14405.849609
8230.409652	0.085620	0.864753	14480.681641
8230.410616	0.085646	0.864753	14563.244141
8230.411570	0.085657	0.864753	14644.960937
8230.412457	0.085715	0.864753	14720.990234
8230.413366	0.085635	0.864753	14798.832031
8230.414325	0.085635	0.864753	14880.956055
8231.441354	1.106268	0.851480	485.651764
8231.442225	1.607717	0.851480	1885.973511
8231.443217	1.599518	0.851480	3472.695312
8231.444141	1.557213	0.851480	4911.560547
8231.445021	1.516512	0.851480	6246.091309
8231.445973	1.474574	0.851480	7649.885742
8231.446915	1.433870	0.851480	9000.590820
8231.447824	1.395256	0.851480	10268.878906
8231.448720	1.360668	0.851480	11488.037109
8231.449636	1.324896	0.851480	12701.642578
8231.450598	1.238701	0.851480	13893.273437
8231.451531	0.247709	0.851480	14124.385742
8231.452400	0.085704	0.851480	14198.863281
8231.453371	0.085635	0.851480	14282.014648
8231.454286	0.085565	0.851480	14360.306641
8231.455163	0.085624	0.851480	14435.398437
8231.456240	0.085609	0.851480	14527.599609
8231.457179	0.085620	0.851480	14607.997070
8231.458101	0.085748	0.851480	14687.056641
8231.458963	0.085664	0.851480	14760.899414
8231.459909	0.085690	0.851480	14841.961914
8232.472570	1.151257	0.875122	552.603516
8232.473462	1.611925	0.875122	1990.440674
8232.474337	1.601752	0.875122	3391.973389
8232.475284	1.558634	0.875122	4868.000000
8232.476286	1.512389	0.875122	6383.413574
8232.477213	1.470725	0.875122	7746.775879
8232.478079	1.433481	0.875122	8988.170898
8232.479143	1.390957	0.875122	10468.149414
8232.480036	1.355394	0.875122	11678.516602
8232.480903	1.321450	0.875122	12824.213867
8232.481791	1.164990	0.875122	13858.724609
8232.482832	0.165659	0.875122	14031.175781
8232.483733	0.085580	0.875122	14108.283203
8232.484611	0.085591	0.875122	14183.431641
8232.485594	0.085686	0.875122	14267.661133
8232.486515	0.085609	0.875122	14346.506836
8232.487433	0.085646	0.875122	14425.129883
8232.488296	0.085627	0.875122	14499.026367
8232.489342	0.085573	0.875122	14588.535156
8232.490220	0.085584	0.875122	14663.677734
8232.491087	0.085642	0.875122	14737.929687
8233.518614	1.174955	0.875480	595.702087
8233.519577	1.615961	0.875480	2151.872314
8233.520466	1.596698	0.875480	3571.336914
8233.521391	1.553481	0.875480	5008.307129
8233.522448	1.505482	0.875480	6599.601562
8233.523331	1.465752	0.875480	7893.860352
8233.524207	1.428849	0.875480	9145.532227
8233.525143	1.390558	0.875480	10447.094727
8233.526120	1.351952	0.875480	11767.952148
8233.527052	1.316580	0.875480	12995.003906
8233.527933	1.159006	0.875480	14016.088867
8233.528981	0.138702	0.875480	14161.449219
8233.529884	0.085558	0.875480	14238.708008
8233.530756	0.085646	0.875480	14313.390625
8233.531614	0.085649	0.875480	14386.877930
8233.532677	0.085558	0.875480	14477.826172
8233.533565	0.085638	0.875480	14553.873047
8233.534437	0.085649	0.875480	14628.559570
8233.535441	0.085682	0.875480	14714.584961
8233.536370	0.085660	0.875480	14794.163086
8233.537281	0.085679	0.875480	14872.216797
8234.550200	1.080110	0.907191	453.646118
8234.551227	1.610424	0.907191	2107.551270
8234.552284	1.591571	0.907191	3789.841797
8234.553159	1.549504	0.907191	5145.658203
8234.554072	1.506577	0.907191	6521.163086
8234.555161	1.459054	0.907191	8110.072754
8234.556120	1.419097	0.907191	9470.986328
8234.556993	1.383512	0.907191	10678.791992
8234.558026	1.343485	0.907191	12066.612305
8234.559056	1.304143	0.907191	13409.879883
8234.559957	0.773778	0.907191	14107.053711
8234.560911	0.096537	0.907191	14199.149414
8234.561954	0.085664	0.907191	14288.497070
8234.562892	0.085653	0.907191	14368.839844
8234.563753	0.085631	0.907191	14442.568359
8234.564817	0.085745	0.907191	14533.800781
8234.565822	0.085631	0.907191	14619.860352
8234.566713	0.085752	0.907191	14696.265625
8234.567673	0.085704	0.907191	14778.541992
8234.568713	0.085807	0.907191	14867.781250
8234.569625	0.085591	0.907191	14945.839844
8235.596226	1.089822	0.900746	465.353851
8235.597193	1.607347	0.900746	2019.658813
8235.598262	1.592183	0.900746	3721.701904
8235.599240	1.547227	0.900746	5234.889648
8235.600107	1.506885	0.900746	6541.358398
8235.601175	1.459446	0.900746	8100.046387
8235.602211	1.416262	0.900746	9567.293945
8235.603104	1.379897	0.900746	10799.541992
8235.604035	1.343785	0.900746	12050.606445
8235.605101	1.303209	0.900746	13439.827148
8235.606057	0.665120	0.900746	14075.681641
8235.606923	0.091571	0.900746	14154.982422
8235.607973	0.085756	0.900746	14245.025391
8235.608996	0.085616	0.900746	14332.611328
8235.609887	0.085686	0.900746	14408.958008
8235.610839	0.085745	0.900746	14490.586914
8235.611875	0.085756	0.900746	14579.429687
8235.612801	0.085613	0.900746	14658.707031
8235.613664	0.085660	0.900746	14732.631836
8235.614718	0.085734	0.900746	14822.995117
8235.615727	0.085657	0.900746	14909.422852
8236.627417	1.108993	0.922672	493.501862
8236.628287	1.608918	0.922672	1893.260864
8236.629160	1.602920	0.922672	3292.609863
8236.630133	1.558887	0.922672	4809.406738
8236.631089	1.515355	0.922672	6258.086426
8236.631983	1.474999	0.922672	7576.735352
8236.632899	1.435895	0.922672	8892.014648
8236.633861	1.396443	0.922672	10235.392578
8236.634789	1.360008	0.922672	11497.480469
8236.635658	1.326097	0.922672	12649.859375
8236.636628	1.269576	0.922672	13881.348633
8236.637569	0.272197	0.922672	14137.486328
8236.638455	0.085682	0.922672	14213.401367
8236.639327	0.085576	0.922672	14288.023437
8236.640289	0.085653	0.922672	14370.421875
8236.641228	0.085646	0.922672	14450.842773
8236.642112	0.085573	0.922672	14526.489258
8236.643025	0.085624	0.922672	14604.664062
8236.643956	0.085638	0.922672	14684.393555
8236.644881	0.085704	0.922672	14763.669922
8236.645743	0.085664	0.922672	14837.512695
8237.673421	1.102877	0.916364	479.751617
8237.674298	1.608274	0.916364	1890.207764
8237.675256	1.601616	0.916364	3424.556152
8237.676175	1.558499	0.916364	4856.816406
8237.677089	1.516476	0.916364	6242.875000
8237.677971	1.476141	0.916364	7544.831543
8237.678975	1.432852	0.916364	8983.414062
8237.679930	1.394257	0.916364	10314.928711
8237.680862	1.357928	0.916364	11580.517578
8237.681733	1.323735	0.916364	12733.491211
8237.682704	1.237163	0.916364	13934.776367
8237.683628	0.227999	0.916364	14145.447266
8237.684519	0.085565	0.916364	14221.685547
8237.685387	0.085690	0.916364	14296.064453
8237.686360	0.085613	0.916364	14379.365234
8237.687283	0.085624	0.916364	14458.395508
8237.688145	0.085613	0.916364	14532.193359
8237.689153	0.085620	0.916364	14618.498047
8237.690086	0.085620	0.916364	14698.381836
8237.690989	0.085719	0.916364	14775.786133
8237.691850	0.085594	0.916364	14849.483398
8238.705176	1.156450	0.948715	586.320251
8238.706067	1.612756	0.948715	2023.286133
8238.706947	1.600715	0.948715	3431.915527
8238.707834	1.558520	0.948715	4814.323242
8238.708882	1.511345	0.948715	6398.212891
8238.709776	1.470901	0.948715	7713.198242
8238.710652	1.433712	0.948715	8969.129883
8238.711650	1.393198	0.948715	10359.541992
8238.712573	1.356262	0.948715	11611.372070
8238.713493	1.321304	0.948715	12826.971680
8238.714372	1.200125	0.948715	13881.880859
8238.715404	0.175763	0.948715	14063.268555
8238.716303	0.085580	0.948715	14140.205078
8238.717176	0.085671	0.948715	14214.996094
8238.718156	0.085693	0.948715	14298.975586
8238.719109	0.085613	0.948715	14380.564453
8238.720025	0.085562	0.948715	14458.938477
8238.720887	0.085624	0.948715	14532.746094
8238.721931	0.085631	0.948715	14622.144531
8238.722812	0.085660	0.948715	14697.611328
8238.723676	0.085525	0.948715	14771.504883
8239.751689	1.152642	0.941770	576.320740
8239.752578	1.612709	0.941770	2010.018799
8239.753447	1.601360	0.941770	3401.600586
8239.754520	1.551874	0.941770	5066.761230
8239.755503	1.506764	0.941770	6547.910156
8239.756380	1.467327	0.941770	7834.755859
8239.757257	1.428666	0.941770	9087.695312
8239.758369	1.385720	0.941770	10628.616211
8239.759254	1.350590	0.941770	11823.887695
8239.760120	1.317264	0.941770	12964.638672
8239.761204	0.943279	0.941770	13987.153320
8239.762173	0.105930	0.941770	14089.799805
8239.763045	0.085671	0.941770	14164.504883
8239.763904	0.085671	0.941770	14238.096680
8239.765019	0.085616	0.941770	14333.558594
8239.765904	0.085686	0.941770	14409.390625
8239.766767	0.085646	0.941770	14483.302734
8239.767826	0.085686	0.941770	14574.043945
8239.768798	0.085587	0.941770	14657.234375
8239.769680	0.085686	0.941770	14732.809570
8239.770538	0.085616	0.941770	14806.268555
8240.782781	1.082157	0.978186	456.670258
8240.783757	1.607721	0.978186	2025.805908
8240.784817	1.592919	0.978186	3714.299805
8240.785731	1.549991	0.978186	5130.992187
8240.786597	1.508317	0.978186	6437.194336
8240.787704	1.460779	0.978186	8054.276367
8240.788672	1.419910	0.978186	9428.749023
8240.789556	1.384259	0.978186	10652.433594
8240.790554	1.345540	0.978186	11995.282227
8240.791618	1.305765	0.978186	13384.616211
8240.792511	0.806122	0.978186	14104.483398
8240.793372	0.099430	0.978186	14190.092773
8240.794467	0.085752	0.978186	14283.991211
8240.795430	0.085624	0.978186	14366.447266
8240.796294	0.085569	0.978186	14440.378906
8240.797336	0.085708	0.978186	14529.686523
8240.798359	0.085635	0.978186	14617.291016
8240.799243	0.085660	0.978186	14693.014648
8240.800153	0.085704	0.978186	14771.005859
8240.801223	0.085708	0.978186	14862.713867
8240.802167	0.085591	0.978186	14943.511719
8241.829361	1.116193	0.960284	534.656311
8241.830294	1.612244	0.960284	2038.879639
8241.831220	1.598536	0.960284	3519.124268
8241.832081	1.558081	0.960284	4860.631836
8241.833023	1.513034	0.960284	6285.909180
8241.833992	1.470447	0.960284	7710.771973
8241.834922	1.431453	0.960284	9042.023437
8241.835799	1.395011	0.960284	10265.448242
8241.836770	1.357445	0.960284	11583.527344
8241.837701	1.321681	0.960284	12814.011719
8241.838569	1.248699	0.960284	13897.882812
8241.839537	0.234939	0.960284	14125.303711
8241.840457	0.085584	0.960284	14204.041016
8241.841386	0.085602	0.960284	14283.565430
8241.842247	0.085697	0.960284	14357.350586
8241.843194	0.085701	0.960284	14438.508789
8241.844150	0.085605	0.960284	14520.347656
8241.845036	0.085605	0.960284	14596.194336
8241.845949	0.085620	0.960284	14674.365234
8241.846891	0.085631	0.960284	14755.029297
8241.847812	0.085605	0.960284	14833.872070
8242.860483	1.089441	0.997063	466.280731
8242.861435	1.606948	0.997063	1996.095459
8242.862371	1.599448	0.997063	3493.179199
8242.863292	1.556883	0.997063	4927.068848
8242.864165	1.516095	0.997063	6250.619629
8242.865135	1.471377	0.997063	7677.855469
8242.866090	1.430998	0.997063	9044.458984
8242.867021	1.393216	0.997063	10341.543945
8242.867897	1.358540	0.997063	11531.625000
8242.868865	1.321816	0.997063	12811.143555
8242.869815	1.208251	0.997063	13958.981445
8242.870714	0.208901	0.997063	14146.784180
8242.871629	0.085613	0.997063	14225.120117
8242.872573	0.085613	0.997063	14305.938477
8242.873492	0.085620	0.997063	14384.623047
8242.874366	0.085631	0.997063	14459.464844
8242.875292	0.085664	0.997063	14538.790039
8242.876210	0.085671	0.997063	14617.436523
8242.877123	0.085627	0.997063	14695.614258
8242.877993	0.085635	0.997063	14770.116211
8242.878954	0.085708	0.997063	14852.481445
8243.908104	1.171311	0.988604	572.771118
8243.909004	1.612731	0.988604	2024.228638
8243.909889	1.600250	0.988604	3440.450195
8243.910831	1.557143	0.988604	4907.279297
8243.911814	1.511620	0.988604	6393.201660
8243.912742	1.469963	0.988604	7757.327637
8243.913617	1.432621	0.988604	9010.871094
8243.914665	1.390653	0.988604	10468.275391
8243.915557	1.355123	0.988604	11677.044922
8243.916431	1.321282	0.988604	12831.845703
8243.917320	1.158988	0.988604	13862.185547
8243.918366	0.160426	0.988604	14029.991211
8243.919262	0.085496	0.988604	14106.595703
8243.920136	0.085540	0.988604	14181.357422
8243.921110	0.085521	0.988604	14264.655273
8243.922038	0.085547	0.988604	14344.042969
8243.922950	0.085547	0.988604	14422.061523
8243.923814	0.085598	0.988604	14496.018555
8243.924849	0.085642	0.988604	14584.658203
8243.925728	0.085540	0.988604	14659.847656
8243.926599	0.085510	0.988604	14734.327148
8244.938199	1.128984	1.014151	503.527008
8244.939085	1.609885	1.014151	1929.885254
8244.940062	1.598848	1.014151	3491.959473
8244.941120	1.550413	1.014151	5132.295898
8244.942029	1.507800	1.014151	6502.886230
8244.942898	1.467587	1.014151	7778.218750
8244.944009	1.422246	1.014151	9358.333984
8244.944978	1.383135	1.014151	10698.591797
8244.945851	1.349224	1.014151	11876.463867
8244.946914	1.308640	1.014151	13267.548828
8244.947947	0.747847	1.014151	14040.074219
8244.948839	0.093918	1.014151	14123.849609
8244.949762	0.085679	1.014151	14202.930664
8244.950821	0.085734	1.014151	14293.722656
8244.951766	0.085609	1.014151	14374.623047
8244.952625	0.085664	1.014151	14448.208008
8244.953664	0.085767	1.014151	14537.319336
8244.954677	0.085708	1.014151	14624.141602
8244.955560	0.085594	1.014151	14699.721680
8244.956490	0.085715	1.014151	14779.436523
8244.957561	0.085679	1.014151	14871.198242
8245.984716	1.098212	1.001365	475.525635
8245.985662	1.607827	1.001365	1996.530151
8245.986566	1.599042	1.001365	3442.063965
8245.987486	1.557100	1.001365	4874.595703
8245.988378	1.516439	1.001365	6227.259766
8245.989285	1.474849	1.001365	7564.947266
8245.990250	1.433899	1.001365	8948.660156
8245.991178	1.396212	1.001365	10244.344727
8245.992043	1.361580	1.001365	11422.111328
8245.993014	1.324757	1.001365	12708.450195
8245.993980	1.247933	1.001365	13913.954102
8245.994878	0.258860	1.001365	14146.410156
8245.995804	0.085715	1.001365	14225.782227
8245.996718	0.085569	1.001365	14303.992187
8245.997651	0.085679	1.001365	14383.930664
8245.998538	0.085562	1.001365	14459.824219
8245.999530	0.085814	1.001365	14544.952148
8246.000581	0.085715	1.001365	14635.039062
8246.001549	0.085686	1.001365	14717.983398
8246.002420	0.085646	1.001365	14792.581055
8246.003453	0.085697	1.001365	14881.106445
8247.017403	1.080623	1.034986	453.861481
8247.018265	1.605773	1.034986	1838.037476
8247.019243	1.600540	1.034986	3403.365234
8247.020203	1.557085	1.034986	4898.166992
8247.021093	1.515568	1.034986	6247.022461
8247.022012	1.474684	1.034986	7602.256836
8247.022977	1.433818	1.034986	8985.891602
8247.023901	1.395615	1.034986	10275.440430
8247.024769	1.360961	1.034986	11456.753906
8247.025727	1.324677	1.034986	12725.793945
8247.026639	1.249676	1.034986	13865.499023
8247.027571	0.259556	1.034986	14107.405273
8247.028449	0.085664	1.034986	14182.618164
8247.029413	0.085675	1.034986	14265.208984
8247.030360	0.085602	1.034986	14346.273437
8247.031251	0.085620	1.034986	14422.560547
8247.032164	0.085613	1.034986	14500.724609
8247.033115	0.085609	1.034986	14582.138672
8247.034043	0.085573	1.034986	14661.549805
8247.034916	0.085613	1.034986	14736.290039
8247.035840	0.085591	1.034986	14815.375977
8248.062434	1.118503	1.018969	517.867065
8248.063325	1.610658	1.018969	1952.963257
8248.064189	1.602711	1.018969	3337.705566
8248.065170	1.558821	1.018969	4866.908691
8248.066130	1.514663	1.018969	6320.985352
8248.067021	1.473834	1.018969	7634.171875
8248.067900	1.435928	1.018969	8896.352539
8248.068827	1.396787	1.018969	10191.173828
8248.069783	1.359943	1.018969	11491.279297
8248.070676	1.325797	1.018969	12675.215820
8248.071592	1.266804	1.018969	13835.608398
8248.072560	0.280715	1.018969	14107.340820
8248.073474	0.085704	1.018969	14185.674805
8248.074338	0.085631	1.018969	14259.660156
8248.075293	0.085697	1.018969	14341.500977
8248.076224	0.085686	1.018969	14421.274414
8248.077153	0.085756	1.018969	14500.941406
8248.078012	0.085671	1.018969	14574.533203
8248.078982	0.085715	1.018969	14657.676758
8248.079912	0.085668	1.018969	14737.347656
8248.080804	0.085631	1.018969	14813.730469
8249.097738	1.186879	1.053222	597.000000
8249.098648	1.613518	1.053222	2065.301514
8249.099576	1.597760	1.053222	3548.022949
8249.100444	1.556565	1.053222	4899.121094
8249.101436	1.511906	1.053222	6398.931641
8249.102362	1.470227	1.053222	7760.361816
8249.103245	1.432529	1.053222	9025.285156
8249.104166	1.395641	1.053222	10310.670898
8249.105112	1.358046	1.053222	11595.381836
8249.106041	1.321699	1.053222	12823.240234
8249.106925	1.257799	1.053222	13935.134766
8249.107849	0.249694	1.053222	14165.851562
8249.108794	0.085576	1.053222	14246.720703
8249.109687	0.085635	1.053222	14323.192383
8249.110624	0.085649	1.053222	14403.446289
8249.111560	0.085598	1.053222	14483.566406
8249.112481	0.085507	1.053222	14562.318359
8249.113359	0.085613	1.053222	14637.486328
8249.114303	0.085649	1.053222	14718.339844
8249.115250	0.085697	1.053222	14799.495117
8249.116158	0.085609	1.053222	14877.228516
8250.141149	1.107458	1.040194	493.926483
8250.142016	1.608127	1.040194	1888.172974
8250.142888	1.603945	1.040194	3286.813232
8250.143911	1.557689	1.040194	4880.329102
8250.144833	1.513766	1.040194	6276.021484
8250.145762	1.472750	1.040194	7644.206543
8250.146633	1.434005	1.040194	8893.224609
8250.147683	1.392557	1.040194	10355.410156
8250.148580	1.357244	1.040194	11572.857422
8250.149457	1.323571	1.040194	12733.628906
8250.150458	1.192057	1.040194	13926.877930
8250.151388	0.199647	1.040194	14112.549805
8250.152312	0.085540	1.040194	14191.587891
8250.153173	0.085693	1.040194	14265.370117
8250.154209	0.085664	1.040194	14354.118164
8250.155082	0.085602	1.040194	14428.848633
8250.155952	0.085638	1.040194	14503.354492
8250.156912	0.085638	1.040194	14585.567383
8250.157864	0.085668	1.040194	14667.123047
8250.158771	0.085562	1.040194	14744.727539
8250.159655	0.085584	1.040194	14820.383789
8251.177444	1.131691	1.067982	525.104431
8251.178320	1.609947	1.067982	1935.418457
8251.179296	1.599386	1.067982	3496.419189
8251.180352	1.550413	1.067982	5133.654785
8251.181273	1.507701	1.067982	6522.248047
8251.182136	1.467894	1.067982	7789.041016
8251.183197	1.423315	1.067982	9299.178711
8251.184203	1.382589	1.067982	10690.063477
8251.185098	1.348293	1.067982	11896.786133
8251.186080	1.310764	1.067982	13183.956055
8251.187152	0.773877	1.067982	14013.551758
8251.188063	0.093904	1.067982	14099.097656
8251.188938	0.085594	1.067982	14173.993164
8251.189935	0.085704	1.067982	14259.440430
8251.190935	0.085653	1.067982	14345.093750
8251.191824	0.085609	1.067982	14421.200195
8251.192683	0.085602	1.067982	14494.732422
8251.193769	0.085657	1.067982	14587.755859
8251.194678	0.085642	1.067982	14665.604492
8251.195555	0.085653	1.067982	14740.722656
8251.196546	0.085693	1.067982	14825.644531
8252.220875	1.107012	1.057174	483.764099
8252.221753	1.607930	1.057174	1895.526367
8252.222764	1.598463	1.057174	3511.572754
8252.223824	1.550142	1.057174	5154.722656
8252.224708	1.508474	1.057174	6488.213867
8252.225600	1.467513	1.057174	7797.235840
8252.226685	1.422821	1.057174	9340.997070
8252.227647	1.383779	1.057174	10672.192383
8252.228512	1.349831	1.057174	11839.796875
8252.229528	1.311328	1.057174	13172.106445
8252.230580	0.821462	1.057174	14036.285156
8252.231451	0.099305	1.057174	14122.780273
8252.232362	0.085715	1.057174	14200.867187
8252.233440	0.085734	1.057174	14293.288086
8252.234373	0.085573	1.057174	14373.126953
8252.235237	0.085642	1.057174	14447.122070
8252.236266	0.085741	1.057174	14535.349609
8252.237291	0.085719	1.057174	14623.211914
8252.238183	0.085616	1.057174	14699.582031
8252.239131	0.085734	1.057174	14780.857422
8252.240187	0.085708	1.057174	14871.365234
8253.259724	1.094542	1.084792	476.125824
8253.260590	1.606923	1.084792	1867.720825
8253.261551	1.600961	1.084792	3406.244141
8253.262492	1.557378	1.084792	4871.736816
8253.263399	1.515256	1.084792	6246.074219
8253.264279	1.474622	1.084792	7543.741211
8253.265244	1.434188	1.084792	8927.732422
8253.266203	1.395443	1.084792	10265.961914
8253.267094	1.360111	1.084792	11477.821289
8253.268002	1.325475	1.084792	12681.352539
8253.268951	1.264622	1.084792	13881.478516
8253.269887	0.253711	1.084792	14118.952148
8253.270756	0.085737	1.084792	14193.458008
8253.271692	0.085624	1.084792	14273.601562
8253.272639	0.085605	1.084792	14354.669922
8253.273541	0.085675	1.084792	14431.949219
8253.274417	0.085573	1.084792	14506.911133
8253.275365	0.085587	1.084792	14588.047852
8253.276323	0.085646	1.084792	14670.096680
8253.277210	0.085704	1.084792	14746.116211
8253.278092	0.085627	1.084792	14821.639648
8254.302153	1.098168	1.073504	477.702942
8254.303028	1.608164	1.073504	1884.846436
8254.303940	1.603337	1.073504	3347.090332
8254.304894	1.559297	1.073504	4834.659668
8254.305829	1.515601	1.073504	6251.746094
8254.306716	1.475669	1.073504	7560.664551
8254.307651	1.435638	1.073504	8902.986328
8254.308607	1.396395	1.073504	10237.940430
8254.309518	1.360459	1.073504	11477.318359
8254.310400	1.325859	1.073504	12646.726562
8254.311364	1.256375	1.073504	13857.872070
8254.312323	0.268187	1.073504	14115.063477
8254.313215	0.085660	1.073504	14191.472656
8254.314104	0.085613	1.073504	14267.582031
8254.315044	0.085704	1.073504	14348.144531
8254.315985	0.085613	1.073504	14428.706055
8254.316868	0.085620	1.073504	14504.308594
8254.317798	0.085653	1.073504	14583.965820
8254.318758	0.085668	1.073504	14666.207031
8254.319660	0.085591	1.073504	14743.410156
8254.320538	0.085598	1.073504	14818.565430
8254.882792	1.105455	0.010511	474.240326
8254.883678	1.611493	0.010511	1902.023193
8254.884616	1.602133	0.010511	3404.823486
8254.885578	1.557946	0.010511	4903.567383
8254.886506	1.515249	0.010511	6309.718750
8254.887375	1.475219	0.010511	7591.683594
8254.888351	1.434723	0.010511	8991.972656
8254.889276	1.396498	0.010511	10283.733398
8254.890139	1.362081	0.010511	11459.209961
8254.891086	1.325665	0.010511	12714.615234
8254.892023	1.249274	0.010511	13885.184570
8254.892950	0.257966	0.010511	14124.319336
8254.893809	0.085781	0.010511	14198.005859
8254.894772	0.085598	0.010511	14280.436523
8254.895712	0.085675	0.010511	14360.970703
8254.896595	0.085668	0.010511	14436.615234
8254.897497	0.085638	0.010511	14513.861328
8254.898446	0.085649	0.010511	14595.142578
8254.899360	0.085686	0.010511	14673.459961
8254.900218	0.085668	0.010511	14746.962891
8254.901165	0.085649	0.010511	14828.073242
