time (s)	coil I (A)	last det (V)	int current (uC)
5047.198878	0.085558	0.045824	3294.148926
5048.203209	1.107913	0.092584	473.078705
5048.204248	1.624039	0.092584	2160.455566
5048.205156	1.607216	0.092584	3619.807373
5048.206042	1.565643	0.092584	5006.967285
5048.206953	1.522390	0.092584	6393.864746
5048.207977	1.476255	0.092584	7905.549805
5048.208872	1.437971	0.092584	9192.534180
5048.209750	1.401896	0.092584	10423.398437
5048.210757	1.362528	0.092584	11795.463867
5048.211674	1.325852	0.092584	13011.270508
5048.212600	1.174548	0.092584	14098.902344
5048.213474	0.194106	0.092584	14268.551758
5048.214518	0.085470	0.092584	14357.782227
5048.215390	0.085686	0.092584	14432.500000
5048.216260	0.085594	0.092584	14506.966797
5048.217224	0.085697	0.092584	14589.579102
5048.218157	0.085605	0.092584	14669.449219
5048.219064	0.085627	0.092584	14747.113281
5048.219939	0.085602	0.092584	14822.014648
5048.220965	0.085649	0.092584	14909.890625
5048.221866	0.085558	0.092584	14986.978516
5049.232825	1.101057	0.090018	465.747131
5049.233920	1.625900	0.090018	2246.107178
5049.234854	1.604290	0.090018	3744.513672
5049.235732	1.562871	0.090018	5116.714355
5049.236732	1.517109	0.090018	6633.823730
5049.237735	1.471040	0.090018	8109.276855
5049.238623	1.433123	0.090018	9381.889648
5049.239486	1.396597	0.090018	10587.152344
5049.240568	1.355270	0.090018	12053.554687
5049.241486	1.319169	0.090018	13264.551758
5049.242360	1.038827	0.090018	14172.486328
5049.243344	0.134099	0.090018	14304.439453
5049.244355	0.085562	0.090018	14390.942383
5049.245244	0.085668	0.090018	14467.100586
5049.246108	0.085605	0.090018	14541.063477
5049.247171	0.085712	0.090018	14632.174805
5049.248110	0.085540	0.090018	14712.496094
5049.248985	0.085594	0.090018	14787.391602
5049.249940	0.085693	0.090018	14869.228516
5049.250956	0.085635	0.090018	14956.233398
5049.251838	0.085624	0.090018	15031.753906
5050.280460	1.167356	0.089768	581.343323
5050.281372	1.624391	0.089768	2062.787842
5050.282240	1.610603	0.089768	3460.791260
5050.283309	1.561483	0.089768	5130.016602
5050.284316	1.514612	0.089768	6655.230469
5050.285211	1.474413	0.089768	7974.830078
5050.286192	1.433181	0.089768	9380.781250
5050.287247	1.389499	0.089768	10846.703125
5050.288166	1.353120	0.089768	12090.220703
5050.289035	1.318403	0.089768	13235.913086
5050.290128	0.773884	0.089768	14081.768555
5050.291102	0.091399	0.089768	14170.791016
5050.291982	0.085620	0.089768	14246.136719
5050.292990	0.085712	0.089768	14332.534180
5050.294035	0.085627	0.089768	14422.014648
5050.294910	0.085697	0.089768	14497.000000
5050.295775	0.085675	0.089768	14571.109375
5050.296858	0.085741	0.089768	14663.966797
5050.297819	0.085624	0.089768	14746.250977
5050.298680	0.085668	0.089768	14820.010742
5050.299751	0.085737	0.089768	14911.834961
5051.309562	1.131365	0.093225	543.055054
5051.310441	1.621637	0.093225	1968.473877
5051.311310	1.613232	0.093225	3370.373047
5051.312265	1.569770	0.093225	4869.503906
5051.313220	1.525064	0.093225	6325.939453
5051.314128	1.483323	0.093225	7672.796387
5051.315006	1.444761	0.093225	8941.296875
5051.315965	1.405199	0.093225	10288.882812
5051.316926	1.367186	0.093225	11602.749023
5051.317820	1.332184	0.093225	12793.721680
5051.318751	1.259553	0.093225	13966.365234
5051.319711	0.265979	0.093225	14221.705078
5051.320585	0.085653	0.093225	14296.565430
5051.321463	0.085477	0.093225	14371.614258
5051.322409	0.085540	0.093225	14452.535156
5051.323358	0.085598	0.093225	14533.767578
5051.324243	0.085576	0.093225	14609.502930
5051.325157	0.085540	0.093225	14687.686523
5051.326116	0.085532	0.093225	14769.711914
5051.327038	0.085562	0.093225	14848.599609
5051.327902	0.085594	0.093225	14922.553711
5052.354540	1.123348	0.096915	534.713806
5052.355478	1.623666	0.096915	2057.712158
5052.356401	1.609391	0.096915	3543.179932
5052.357289	1.567387	0.096915	4935.019043
5052.358269	1.522720	0.096915	6427.284180
5052.359192	1.479532	0.096915	7792.892578
5052.360120	1.440157	0.096915	9129.358398
5052.360981	1.403525	0.096915	10337.793945
5052.361952	1.365798	0.096915	11663.984375
5052.362896	1.329159	0.096915	12918.710937
5052.363773	1.258319	0.096915	14022.256836
5052.364692	0.260310	0.096915	14261.481445
5052.365647	0.085573	0.096915	14343.203125
5052.366568	0.085635	0.096915	14422.072266
5052.367444	0.085598	0.096915	14497.056641
5052.368351	0.085580	0.096915	14574.677734
5052.369307	0.085602	0.096915	14656.512695
5052.370225	0.085551	0.096915	14735.047852
5052.371084	0.085565	0.096915	14808.548828
5052.372044	0.085613	0.096915	14890.737305
5052.372974	0.085558	0.096915	14970.305664
5053.381081	1.115665	0.102405	489.777069
5053.381960	1.618158	0.102405	1912.137939
5053.382837	1.614906	0.102405	3328.410645
5053.383822	1.570803	0.102405	4875.651855
5053.384754	1.526547	0.102405	6298.393555
5053.385679	1.484125	0.102405	7671.208984
5053.386553	1.445724	0.102405	8934.771484
5053.387467	1.406389	0.102405	10220.210937
5053.388438	1.368223	0.102405	11548.754883
5053.389367	1.332499	0.102405	12786.646484
5053.390232	1.286532	0.102405	13899.497070
5053.391205	0.296067	0.102405	14187.570312
5053.392150	0.085781	0.102405	14268.633789
5053.393037	0.085664	0.102405	14344.618164
5053.393944	0.085591	0.102405	14422.249023
5053.394897	0.085580	0.102405	14503.806641
5053.395821	0.085616	0.102405	14582.916016
5053.396689	0.085620	0.102405	14657.234375
5053.397604	0.085554	0.102405	14735.516602
5053.398547	0.085598	0.102405	14816.235352
5053.399474	0.085594	0.102405	14895.581055
5054.430669	1.115219	0.090401	487.350494
5054.431552	1.618319	0.090401	1916.326294
5054.432435	1.614606	0.090401	3342.023193
5054.433296	1.572989	0.090401	4696.367187
5054.434318	1.527231	0.090401	6257.197754
5054.435243	1.485077	0.090401	7630.894043
5054.436112	1.446709	0.090401	8888.083984
5054.437144	1.404716	0.090401	10337.750000
5054.438026	1.368992	0.090401	11545.201172
5054.438954	1.333165	0.090401	12782.378906
5054.439821	1.276446	0.090401	13889.057617
5054.440797	0.292808	0.090401	14174.837891
5054.441718	0.085778	0.090401	14253.838867
5054.442591	0.085576	0.090401	14328.546875
5054.443600	0.085646	0.090401	14414.963867
5054.444501	0.085609	0.090401	14492.097656
5054.445400	0.085558	0.090401	14569.014648
5054.446282	0.085587	0.090401	14644.502930
5054.447231	0.085543	0.090401	14725.683594
5054.448173	0.085616	0.090401	14806.333984
5054.449056	0.085569	0.090401	14881.891602
5055.458741	1.082043	0.099678	454.458221
5055.459765	1.621641	0.099678	2115.018066
5055.460730	1.605718	0.099678	3664.535645
5055.461646	1.562714	0.099678	5095.981445
5055.462531	1.521178	0.099678	6442.223633
5055.463554	1.475632	0.099678	7951.795410
5055.464453	1.436583	0.099678	9243.284180
5055.465330	1.400336	0.099678	10471.378906
5055.466232	1.363854	0.099678	11701.575195
5055.467265	1.324281	0.099678	13069.557617
5055.468154	1.158581	0.099678	14099.537109
5055.469030	0.186877	0.099678	14263.242187
5055.470040	0.085602	0.099678	14349.700195
5055.470935	0.085587	0.099678	14426.300781
5055.471844	0.085635	0.099678	14504.142578
5055.472721	0.085675	0.099678	14579.279297
5055.473753	0.085620	0.099678	14667.639648
5055.474642	0.085653	0.099678	14743.785156
5055.475516	0.085649	0.099678	14818.642578
5055.476487	0.085660	0.099678	14901.818359
5055.477438	0.085605	0.099678	14983.229492
5056.503761	1.122612	0.102389	498.439880
5056.504639	1.618279	0.102389	1919.288574
5056.505629	1.609911	0.102389	3513.100342
5056.506686	1.560828	0.102389	5162.895020
5056.507597	1.517977	0.102389	6545.772461
5056.508464	1.476797	0.102389	7826.155273
5056.509569	1.431387	0.102389	9407.837891
5056.510535	1.392070	0.102389	10752.578125
5056.511403	1.357537	0.102389	11930.919922
5056.512462	1.316770	0.102389	13325.378906
5056.513498	0.775547	0.102389	14128.845703
5056.514376	0.096819	0.102389	14213.852539
5056.515299	0.085602	0.102389	14292.863281
5056.516358	0.085686	0.102389	14383.604492
5056.517301	0.085580	0.102389	14464.306641
5056.518166	0.085682	0.102389	14538.421875
5056.519224	0.085708	0.102389	14629.100586
5056.520241	0.085576	0.102389	14716.131836
5056.521116	0.085598	0.102389	14791.030273
5056.522066	0.085624	0.102389	14872.373047
5056.523131	0.085686	0.102389	14963.628906
5057.531325	1.111450	0.107916	473.477783
5057.532426	1.624680	0.107916	2262.250488
5057.533444	1.599774	0.107916	3890.820557
5057.534333	1.557437	0.107916	5275.381836
5057.535285	1.513608	0.107916	6716.336914
5057.536355	1.465686	0.107916	8284.621094
5057.537291	1.425839	0.107916	9619.206055
5057.538155	1.389397	0.107916	10819.644531
5057.539224	1.348619	0.107916	12261.318359
5057.540239	1.309288	0.107916	13590.246094
5057.541118	0.720820	0.107916	14223.847656
5057.542085	0.093655	0.107916	14314.412109
5057.543122	0.085631	0.107916	14403.211914
5057.544034	0.085653	0.107916	14481.327148
5057.544903	0.085657	0.107916	14555.762695
5057.545965	0.085712	0.107916	14646.788086
5057.546954	0.085565	0.107916	14731.412109
5057.547845	0.085668	0.107916	14807.742187
5057.548831	0.085723	0.107916	14892.264648
5057.549880	0.085708	0.107916	14982.171875
5057.550787	0.085668	0.107916	15059.872070
5058.575826	1.110806	0.087146	494.308563
5058.576699	1.617722	0.087146	1906.580078
5058.577611	1.613027	0.087146	3377.661133
5058.578581	1.568840	0.087146	4899.436035
5058.579510	1.525192	0.087146	6316.338867
5058.580380	1.485040	0.087146	7608.324219
5058.581340	1.444116	0.087146	8994.675781
5058.582270	1.404602	0.087146	10300.956055
5058.583188	1.367922	0.087146	11556.708984
5058.584076	1.332561	0.087146	12740.023437
5058.585046	1.254419	0.087146	13956.809570
5058.585972	0.265426	0.087146	14202.593750
5058.586839	0.085726	0.087146	14276.918945
5058.587820	0.085532	0.087146	14360.826172
5058.588764	0.085598	0.087146	14441.630859
5058.589655	0.085616	0.087146	14517.915039
5058.590554	0.085551	0.087146	14594.825195
5058.591493	0.085573	0.087146	14675.177734
5058.592434	0.085584	0.087146	14755.711914
5058.593304	0.085584	0.087146	14830.169922
5058.594216	0.085576	0.087146	14908.215820
5059.606509	1.114611	0.092210	529.440002
5059.607451	1.622538	0.092210	2057.870605
5059.608379	1.608717	0.092210	3550.760010
5059.609246	1.567731	0.092210	4909.982422
5059.610185	1.523134	0.092210	6340.205078
5059.611143	1.479478	0.092210	7757.544434
5059.612068	1.440099	0.092210	9089.635742
5059.612952	1.403060	0.092210	10329.941406
5059.613927	1.364865	0.092210	11660.684570
5059.614876	1.328148	0.092210	12921.097656
5059.615777	1.236174	0.092210	14034.890625
5059.616700	0.235118	0.092210	14251.905273
5059.617650	0.085532	0.092210	14333.161133
5059.618564	0.085576	0.092210	14411.377930
5059.619424	0.085664	0.092210	14485.048828
5059.620411	0.085605	0.092210	14569.541016
5059.621355	0.085609	0.092210	14650.356445
5059.622254	0.085649	0.092210	14727.355469
5059.623132	0.085660	0.092210	14802.565430
5059.624089	0.085624	0.092210	14884.507812
5059.625040	0.085598	0.092210	14965.912109
5060.653529	1.117093	0.106571	497.106567
5060.654404	1.617473	0.106571	1912.395508
5060.655266	1.614510	0.106571	3304.103516
5060.656291	1.567899	0.106571	4911.200195
5060.657195	1.524298	0.106571	6289.165527
5060.658125	1.482627	0.106571	7668.008789
5060.658993	1.443607	0.106571	8921.059570
5060.660038	1.401669	0.106571	10385.803711
5060.660937	1.366110	0.106571	11613.936523
5060.661818	1.331796	0.106571	12787.248047
5060.662816	1.221445	0.106571	14006.250000
5060.663738	0.217262	0.106571	14206.565430
5060.664660	0.085657	0.106571	14285.541016
5060.665519	0.085668	0.106571	14359.129883
5060.666549	0.085627	0.106571	14447.326172
5060.667437	0.085624	0.106571	14523.360352
5060.668304	0.085598	0.106571	14597.574219
5060.669262	0.085620	0.106571	14679.598633
5060.670213	0.085558	0.106571	14760.963867
5060.671122	0.085646	0.106571	14838.815430
5060.671998	0.085657	0.106571	14913.850586
5061.679633	1.168436	0.108323	581.881287
5061.680508	1.621355	0.108323	2000.566895
5061.681373	1.612321	0.108323	3395.224121
5061.682416	1.564351	0.108323	5026.841797
5061.683368	1.519673	0.108323	6473.570312
5061.684245	1.479738	0.108323	7771.300293
5061.685133	1.440139	0.108323	9050.143555
5061.686242	1.396274	0.108323	10598.612305
5061.687141	1.360455	0.108323	11821.662109
5061.688013	1.326368	0.108323	12978.255859
5061.689060	1.023322	0.108323	14049.673828
5061.690034	0.119268	0.108323	14165.840820
5061.690909	0.085609	0.108323	14240.749023
5061.691790	0.085653	0.108323	14316.208984
5061.692870	0.085715	0.108323	14408.781250
5061.693754	0.085594	0.108323	14484.446289
5061.694614	0.085697	0.108323	14558.145508
5061.695689	0.085730	0.108323	14650.305664
5061.696652	0.085627	0.108323	14732.764648
5061.697523	0.085598	0.108323	14807.320312
5061.698378	0.085679	0.108323	14880.575195
5062.725667	1.185385	0.086912	611.658386
5062.726621	1.625471	0.086912	2162.357910
5062.727490	1.608197	0.086912	3559.881348
5062.728401	1.564684	0.086912	4985.308105
5062.729477	1.515857	0.086912	6616.370117
5062.730367	1.475321	0.086912	7929.405762
5062.731235	1.437913	0.086912	9177.513672
5062.732254	1.395787	0.086912	10599.821289
5062.733229	1.357474	0.086912	11923.358398
5062.734104	1.323413	0.086912	13081.344727
5062.734971	1.088207	0.086912	14024.820312
5062.736071	0.125167	0.086912	14162.503906
5062.736962	0.085587	0.086912	14238.761719
5062.737833	0.085682	0.086912	14313.390625
5062.738839	0.085759	0.086912	14399.664062
5062.739832	0.085675	0.086912	14484.739258
5062.740724	0.085580	0.086912	14561.076172
5062.741580	0.085668	0.086912	14634.408203
5062.742650	0.085682	0.086912	14726.087891
5062.743544	0.085679	0.086912	14802.684570
5062.744420	0.085704	0.086912	14877.761719
5063.755279	1.173615	0.095299	586.807251
5063.756291	1.626350	0.095299	2232.673584
5063.757191	1.604850	0.095299	3677.038574
5063.758170	1.559213	0.095299	5203.507812
5063.759224	1.510038	0.095299	6795.087891
5063.760146	1.468491	0.095299	8149.036621
5063.761013	1.430581	0.095299	9389.350586
5063.762101	1.387148	0.095299	10898.568359
5063.763090	1.348041	0.095299	12231.780273
5063.763992	1.313606	0.095299	13416.652344
5063.764989	0.728265	0.095299	14142.732422
5063.766035	0.089579	0.095299	14236.431641
5063.766916	0.085529	0.095299	14311.782227
5063.767794	0.085686	0.095299	14387.014648
5063.768883	0.085715	0.095299	14480.358398
5063.769839	0.085657	0.095299	14562.246094
5063.770700	0.085551	0.095299	14635.905273
5063.771729	0.085664	0.095299	14724.053711
5063.772762	0.085613	0.095299	14812.492187
5063.773632	0.085638	0.095299	14886.998047
5063.774542	0.085708	0.095299	14964.992187
5064.802251	1.106744	0.104951	485.860809
5064.803128	1.617239	0.104951	1904.179199
5064.804042	1.613060	0.104951	3378.516357
5064.805017	1.568544	0.104951	4907.846680
5064.805916	1.526213	0.104951	6279.912598
5064.806830	1.484755	0.104951	7636.978516
5064.807747	1.443219	0.104951	8960.410156
5064.808701	1.404379	0.104951	10300.187500
5064.809595	1.368918	0.104951	11524.000977
5064.810519	1.332667	0.104951	12755.385742
5064.811483	1.268137	0.104951	13977.870117
5064.812406	0.284081	0.104951	14240.077148
5064.813281	0.085979	0.104951	14315.308594
5064.814236	0.085602	0.104951	14397.058594
5064.815177	0.085686	0.104951	14477.689453
5064.816106	0.085664	0.104951	14557.271484
5064.816970	0.085602	0.104951	14631.231445
5064.817936	0.085690	0.104951	14714.007812
5064.818863	0.085675	0.104951	14793.428711
5064.819758	0.085602	0.104951	14870.041992
5064.820669	0.085697	0.104951	14948.112305
5065.829305	1.101610	0.115594	465.981049
5065.830287	1.621663	0.115594	2058.453613
5065.831222	1.608223	0.115594	3562.141602
5065.832103	1.566859	0.115594	4942.544434
5065.833024	1.523987	0.115594	6346.136230
5065.833982	1.480891	0.115594	7764.830078
5065.834911	1.440721	0.115594	9103.259766
5065.835779	1.404280	0.115594	10322.174805
5065.836709	1.366926	0.115594	11593.416016
5065.837640	1.330162	0.115594	12831.796875
5065.838568	1.266361	0.115594	14006.979492
5065.839441	0.285579	0.115594	14256.290039
5065.840412	0.085675	0.115594	14339.480469
5065.841333	0.085587	0.115594	14418.306641
5065.842193	0.085638	0.115594	14491.956055
5065.843155	0.085576	0.115594	14574.280273
5065.844093	0.085609	0.115594	14654.582031
5065.844979	0.085719	0.115594	14730.529297
5065.845870	0.085587	0.115594	14806.787109
5065.846799	0.085573	0.115594	14886.284180
5065.847743	0.085605	0.115594	14967.095703
5066.873302	1.114567	0.086405	489.294769
5066.874174	1.617165	0.086405	1899.463013
5066.875092	1.611914	0.086405	3379.200195
5066.876108	1.565310	0.086405	4969.555176
5066.876997	1.523793	0.086405	6324.207031
5066.877866	1.484074	0.086405	7613.867187
5066.878859	1.441802	0.086405	9045.576172
5066.879776	1.402544	0.086405	10331.708984
5066.880701	1.366600	0.086405	11595.814453
5066.881571	1.331572	0.086405	12754.282227
5066.882611	1.221053	0.086405	14024.177734
5066.883510	0.218756	0.086405	14220.839844
5066.884384	0.085638	0.086405	14295.687500
5066.885354	0.085668	0.086405	14378.785156
5066.886313	0.085514	0.086405	14460.792969
5066.887233	0.085671	0.086405	14539.610352
5066.888099	0.085638	0.086405	14613.773437
5066.889130	0.085627	0.086405	14702.055664
5066.889999	0.085616	0.086405	14776.456055
5066.890871	0.085580	0.086405	14851.082031
5066.891779	0.085664	0.086405	14928.865234
5067.903434	1.103218	0.090957	474.383667
5067.904400	1.617414	0.090957	2036.806030
5067.905461	1.603301	0.090957	3737.908203
5067.906373	1.559890	0.090957	5160.527832
5067.907236	1.518453	0.090957	6470.953125
5067.908326	1.470644	0.090957	8073.955566
5067.909315	1.428208	0.090957	9486.453125
5067.910196	1.392206	0.090957	10712.986328
5067.911209	1.352970	0.090957	12083.544922
5067.912272	1.312266	0.090957	13478.483398
5067.913160	0.811732	0.090957	14199.301758
5067.914017	0.100404	0.090957	14285.347656
5067.915053	0.085693	0.090957	14374.125977
5067.916029	0.085638	0.090957	14457.708984
5067.916910	0.085576	0.090957	14533.101562
5067.917770	0.085723	0.090957	14606.823242
5067.918875	0.085657	0.090957	14701.473633
5067.919771	0.085573	0.090957	14778.146484
5067.920651	0.085613	0.090957	14853.485352
5067.921644	0.085737	0.090957	14938.622070
5067.922644	0.085547	0.090957	15024.168945
5068.951578	1.177822	0.102115	599.511536
5068.952578	1.626269	0.102115	2225.781006
5068.953460	1.605630	0.102115	3641.946777
5068.954460	1.559121	0.102115	5201.067871
5068.955506	1.510983	0.102115	6781.555664
5068.956392	1.470209	0.102115	8084.160645
5068.957266	1.431347	0.102115	9335.157227
5068.958374	1.387760	0.102115	10872.794922
5068.959341	1.350015	0.102115	12178.258789
5068.960201	1.316202	0.102115	13310.192383
5068.961230	0.768094	0.102115	14100.561523
5068.962286	0.090568	0.102115	14196.201172
5068.963162	0.085671	0.102115	14271.249023
5068.964087	0.085642	0.102115	14350.467773
5068.965153	0.085737	0.102115	14441.863281
5068.966088	0.085697	0.102115	14521.990234
5068.966958	0.085675	0.102115	14596.527344
5068.967991	0.085708	0.102115	14685.063477
5068.969003	0.085668	0.102115	14771.758789
5068.969895	0.085620	0.102115	14848.131836
5068.970846	0.085752	0.102115	14929.681641
5069.978067	1.127318	0.113890	494.892670
5069.978953	1.618487	0.113890	1928.872559
5069.979868	1.611493	0.113890	3403.388672
5069.980824	1.567573	0.113890	4901.988770
5069.981746	1.524891	0.113890	6307.938477
5069.982615	1.484542	0.113890	7598.005859
5069.983592	1.443171	0.113890	9007.984375
5069.984550	1.403639	0.113890	10352.669922
5069.985441	1.367655	0.113890	11571.250977
5069.986336	1.332751	0.113890	12764.063477
5069.987276	1.268328	0.113890	13956.291016
5069.988219	0.263972	0.113890	14205.216797
5069.989100	0.085800	0.113890	14280.806641
5069.990007	0.085562	0.113890	14358.411133
5069.990973	0.085657	0.113890	14441.155273
5069.991889	0.085635	0.113890	14519.596680
5069.992761	0.085646	0.113890	14594.279297
5069.993713	0.085620	0.113890	14675.790039
5069.994647	0.085646	0.113890	14755.783203
5069.995525	0.085653	0.113890	14830.986328
5069.996558	0.085679	0.113890	14919.492187
5071.023078	1.149492	0.097056	536.812805
5071.024016	1.622340	0.097056	2058.567871
5071.024901	1.609984	0.097056	3483.403809
5071.025809	1.567896	0.097056	4907.052734
5071.026772	1.523013	0.097056	6373.713867
5071.027703	1.480653	0.097056	7752.202148
5071.028574	1.442692	0.097056	9008.787109
5071.029543	1.403628	0.097056	10368.902344
5071.030477	1.366018	0.097056	11644.763672
5071.031369	1.330338	0.097056	12831.425781
5071.032254	1.257294	0.097056	13944.130859
5071.033237	0.246464	0.097056	14186.404297
5071.034179	0.085584	0.097056	14267.024414
5071.035069	0.085554	0.097056	14343.167969
5071.035979	0.085627	0.097056	14421.088867
5071.036919	0.085616	0.097056	14501.568359
5071.037828	0.085605	0.097056	14579.383789
5071.038687	0.085591	0.097056	14652.906250
5071.039653	0.085616	0.097056	14735.611328
5071.040600	0.085616	0.097056	14816.690430
5071.041477	0.085584	0.097056	14891.747070
5072.051126	1.109846	0.096850	467.245270
5072.052182	1.625156	0.096850	2183.410400
5072.053078	1.606296	0.096850	3622.651855
5072.053957	1.565380	0.096850	4998.620605
5072.054955	1.519746	0.096850	6515.327148
5072.055897	1.475965	0.096850	7905.686523
5072.056821	1.436689	0.096850	9233.187500
5072.057692	1.400061	0.096850	10452.640625
5072.058721	1.360217	0.096850	11852.303711
5072.059606	1.325394	0.096850	13025.277344
5072.060536	1.169253	0.096850	14112.682617
5072.061402	0.192495	0.096850	14279.383789
5072.062370	0.085540	0.096850	14362.186523
5072.063294	0.085576	0.096850	14441.258789
5072.064174	0.085613	0.096850	14516.597656
5072.065173	0.085584	0.096850	14602.095703
5072.066071	0.085660	0.096850	14679.018555
5072.066979	0.085602	0.096850	14756.745117
5072.067852	0.085682	0.096850	14831.545898
5072.068871	0.085602	0.096850	14918.774414
5072.069820	0.085609	0.096850	15000.017578
5073.101352	1.196188	0.113060	625.606201
5073.102306	1.625464	0.113060	2176.298828
5073.103184	1.607036	0.113060	3587.276367
5073.104120	1.563453	0.113060	5050.668945
5073.105184	1.514326	0.113060	6661.912109
5073.106082	1.473384	0.113060	7985.010742
5073.106947	1.435822	0.113060	9226.996094
5073.107990	1.393407	0.113060	10680.319336
5073.108940	1.355988	0.113060	11968.507812
5073.109816	1.321956	0.113060	13126.541016
5073.110725	1.018004	0.113060	14051.906250
5073.111811	0.114309	0.113060	14176.045898
5073.112681	0.085554	0.113060	14250.478516
5073.113553	0.085690	0.113060	14325.200195
5073.114564	0.085697	0.113060	14411.839844
5073.115538	0.085642	0.113060	14495.254883
5073.116412	0.085591	0.113060	14570.061523
5073.117280	0.085686	0.113060	14644.436523
5073.118390	0.085719	0.113060	14739.584961
5073.119285	0.085682	0.113060	14816.270508
5073.120146	0.085657	0.113060	14890.020508
5074.128860	1.104543	0.121987	493.730927
5074.129723	1.616744	0.121987	1888.981323
5074.130758	1.606728	0.121987	3551.945312
5074.131781	1.559330	0.121987	5147.139648
5074.132677	1.517728	0.121987	6507.024414
5074.133626	1.474889	0.121987	7906.693848
5074.134696	1.429186	0.121987	9435.922852
5074.135630	1.390759	0.121987	10734.892578
5074.136507	1.355845	0.121987	11923.968750
5074.137577	1.314884	0.121987	13330.894531
5074.138585	0.774148	0.121987	14111.235352
5074.139477	0.095753	0.121987	14196.647461
5074.140441	0.085697	0.121987	14279.259766
5074.141498	0.085587	0.121987	14369.725586
5074.142418	0.085605	0.121987	14448.482422
5074.143280	0.085627	0.121987	14522.292969
5074.144347	0.085646	0.121987	14613.676758
5074.145332	0.085514	0.121987	14697.908203
5074.146217	0.085580	0.121987	14773.646484
5074.147206	0.085660	0.121987	14858.364258
5074.148243	0.085649	0.121987	14947.182617
5075.171265	1.093103	0.095017	466.755005
5075.172161	1.615104	0.095017	1913.887939
5075.173111	1.610391	0.095017	3443.758789
5075.174043	1.567647	0.095017	4904.805176
5075.174917	1.526426	0.095017	6238.901367
5075.175832	1.483850	0.095017	7596.624023
5075.176797	1.442728	0.095017	8988.856445
5075.177720	1.404569	0.095017	10285.273437
5075.178593	1.369512	0.095017	11480.857422
5075.179561	1.332268	0.095017	12770.493164
5075.180516	1.270917	0.095017	13984.218750
5075.181413	0.279331	0.095017	14234.778320
5075.182303	0.085986	0.095017	14311.305664
5075.183243	0.085675	0.095017	14391.839844
5075.184187	0.085558	0.095017	14472.606445
5075.185054	0.085594	0.095017	14546.816406
5075.185966	0.085712	0.095017	14624.985352
5075.186922	0.085602	0.095017	14706.820312
5075.187842	0.085591	0.095017	14785.563477
5075.188716	0.085693	0.095017	14860.458984
5075.189651	0.085602	0.095017	14940.497070
5076.199871	1.086266	0.096286	462.749237
5076.200737	1.614829	0.096286	1861.191284
5076.201705	1.610607	0.096286	3420.258545
5076.202637	1.567313	0.096286	4880.994141
5076.203567	1.524492	0.096286	6298.771973
5076.204436	1.484059	0.096286	7588.418945
5076.205425	1.442428	0.096286	9014.980469
5076.206354	1.403774	0.096286	10319.086914
5076.207234	1.368442	0.096286	11523.316406
5076.208162	1.333246	0.096286	12760.568359
5076.209085	1.271067	0.096286	13933.762695
5076.210022	0.274486	0.096286	14190.956055
5076.210917	0.085803	0.096286	14267.750000
5076.211829	0.085558	0.096286	14345.778320
5076.212783	0.085646	0.096286	14427.484375
5076.213679	0.085609	0.096286	14504.190430
5076.214619	0.085602	0.096286	14584.656250
5076.215567	0.085624	0.096286	14665.827148
5076.216482	0.085547	0.096286	14744.102539
5076.217357	0.085551	0.096286	14818.958984
5076.218318	0.085657	0.096286	14901.275391
5077.249473	1.090371	0.102305	466.678802
5077.250425	1.615162	0.102305	2004.313354
5077.251466	1.604495	0.102305	3674.592285
5077.252356	1.562564	0.102305	5065.273926
5077.253217	1.521702	0.102305	6375.458984
5077.254268	1.474940	0.102305	7925.621094
5077.255220	1.434038	0.102305	9290.825195
5077.256092	1.397776	0.102305	10509.685547
5077.257018	1.360789	0.102305	11769.775391
5077.258076	1.320231	0.102305	13166.579102
5077.258980	1.062861	0.102305	14127.406250
5077.259851	0.144606	0.102305	14253.357422
5077.260883	0.085620	0.102305	14341.717773
5077.261834	0.085616	0.102305	14423.138672
5077.262709	0.085609	0.102305	14498.046875
5077.263605	0.085664	0.102305	14574.801758
5077.264682	0.085693	0.102305	14667.093750
5077.265560	0.085635	0.102305	14742.281250
5077.266419	0.085649	0.102305	14815.854492
5077.267488	0.085719	0.102305	14907.488281
5077.268447	0.085594	0.102305	14989.573242
5078.277152	1.182708	0.107743	603.180847
5078.278157	1.625775	0.107743	2237.084717
5078.279051	1.604355	0.107743	3671.378418
5078.280032	1.558488	0.107743	5200.254883
5078.281092	1.509214	0.107743	6800.021484
5078.282008	1.467762	0.107743	8144.492187
5078.282876	1.429797	0.107743	9385.556641
5078.283965	1.386405	0.107743	10895.351562
5078.284949	1.347605	0.107743	12221.394531
5078.285841	1.313624	0.107743	13393.147461
5078.286836	0.743408	0.107743	14132.838867
5078.287885	0.089824	0.107743	14227.064453
5078.288774	0.085697	0.107743	14303.249023
5078.289634	0.085708	0.107743	14376.958008
5078.290726	0.085737	0.107743	14470.583008
5078.291686	0.085642	0.107743	14552.799805
5078.292546	0.085668	0.107743	14626.473633
5078.293609	0.085693	0.107743	14717.565430
5078.294638	0.085605	0.107743	14805.653320
5078.295517	0.085554	0.107743	14880.855469
5078.296426	0.085642	0.107743	14958.704102
5079.321022	1.088478	0.103852	462.603088
5079.321946	1.615323	0.103852	1955.161865
5079.322868	1.610749	0.103852	3440.272949
5079.323795	1.568024	0.103852	4893.831055
5079.324660	1.527125	0.103852	6214.794434
5079.325667	1.481287	0.103852	7706.450195
5079.326602	1.440758	0.103852	9053.558594
5079.327529	1.402844	0.103852	10353.995117
5079.328392	1.367432	0.103852	11534.088867
5079.329344	1.330554	0.103852	12800.776367
5079.330307	1.237628	0.103852	13992.612305
5079.331206	0.248555	0.103852	14216.062500
5079.332121	0.085887	0.103852	14294.649414
5079.333068	0.085638	0.103852	14375.749023
5079.333958	0.085690	0.103852	14452.012695
5079.334849	0.085664	0.103852	14528.339844
5079.335792	0.085638	0.103852	14609.096680
5079.336733	0.085631	0.103852	14689.675781
5079.337614	0.085609	0.103852	14765.097656
5079.338540	0.085613	0.103852	14844.375000
5079.339501	0.085730	0.103852	14926.761719
5080.349124	1.093868	0.102357	471.457306
5080.349988	1.615177	0.102357	1866.970093
5080.351015	1.609160	0.102357	3519.577637
5080.351916	1.566588	0.102357	4931.073730
5080.352837	1.523675	0.102357	6334.378906
5080.353713	1.483458	0.102357	7633.888184
5080.354710	1.440315	0.102357	9069.881836
5080.355641	1.401801	0.102357	10374.958008
5080.356527	1.366575	0.102357	11585.743164
5080.357501	1.329547	0.102357	12880.721680
5080.358421	1.217761	0.102357	14001.062500
5080.359343	0.220964	0.102357	14204.791992
5080.360231	0.085591	0.102357	14280.796875
5080.361204	0.085631	0.102357	14364.116211
5080.362130	0.085631	0.102357	14443.410156
5080.363013	0.085631	0.102357	14519.022461
5080.363925	0.085642	0.102357	14597.127930
5080.364897	0.085642	0.102357	14680.372070
5080.365818	0.085613	0.102357	14759.221680
5080.366692	0.085576	0.102357	14834.015625
5080.367600	0.085569	0.102357	14911.711914
5081.397265	1.169799	0.097966	586.069092
5081.398193	1.623355	0.097966	2092.541992
5081.399071	1.608640	0.097966	3504.928223
5081.400026	1.564603	0.097966	4999.124512
5081.401069	1.516011	0.097966	6580.323730
5081.401963	1.475087	0.097966	7899.051270
5081.402829	1.437473	0.097966	9143.903320
5081.403894	1.394099	0.097966	10628.619141
5081.404837	1.357101	0.097966	11908.365234
5081.405715	1.322937	0.097966	13069.904297
5081.406661	1.036743	0.097966	14050.663086
5081.407710	0.118110	0.097966	14174.560547
5081.408595	0.085580	0.097966	14250.298828
5081.409450	0.085642	0.097966	14323.522461
5081.410481	0.085671	0.097966	14411.849609
5081.411440	0.085587	0.097966	14493.927734
5081.412313	0.085631	0.097966	14568.683594
5081.413220	0.085657	0.097966	14646.374023
5081.414290	0.085668	0.097966	14738.038086
5081.415182	0.085598	0.097966	14814.391602
5081.416043	0.085613	0.097966	14888.104492
5082.426364	1.125553	0.115550	538.014343
5082.427252	1.620117	0.115550	1976.678467
5082.428118	1.611845	0.115550	3372.535889
5082.429056	1.567884	0.115550	4843.211426
5082.429999	1.524148	0.115550	6280.482910
5082.430929	1.482151	0.115550	7658.883301
5082.431796	1.443907	0.115550	8910.750977
5082.432773	1.404305	0.115550	10282.757812
5082.433737	1.366534	0.115550	11600.096680
5082.434611	1.331279	0.115550	12763.634766
5082.435507	1.276139	0.115550	13907.054687
5082.436461	0.269022	0.115550	14163.702148
5082.437405	0.085675	0.115550	14244.579102
5082.438293	0.085693	0.115550	14320.674805
5082.439276	0.085671	0.115550	14404.889648
5082.440321	0.085679	0.115550	14494.423828
5082.441281	0.085591	0.115550	14576.590820
5082.442152	0.085638	0.115550	14651.181641
5082.443196	0.085690	0.115550	14740.641602
5082.444226	0.085624	0.115550	14828.833984
5082.445113	0.085653	0.115550	14904.808594
5083.469816	1.143376	0.107868	545.390564
5083.470687	1.619246	0.107868	1955.753418
5083.471609	1.609904	0.107868	3440.084473
5083.472568	1.565673	0.107868	4941.564453
5083.473500	1.522130	0.107868	6360.189453
5083.474380	1.481840	0.107868	7664.208496
5083.475340	1.441340	0.107868	9047.895508
5083.476262	1.401903	0.107868	10340.450195
5083.477184	1.365824	0.107868	11599.740234
5083.478049	1.331444	0.107868	12751.439453
5083.479019	1.245015	0.107868	13959.103516
5083.479965	0.247196	0.107868	14192.951172
5083.480825	0.085712	0.107868	14266.663086
5083.481772	0.085558	0.107868	14347.686523
5083.482713	0.085660	0.107868	14428.292969
5083.483611	0.085657	0.107868	14505.212891
5083.484500	0.085580	0.107868	14581.292969
5083.485436	0.085638	0.107868	14661.450195
5083.486381	0.085562	0.107868	14742.305664
5083.487265	0.085576	0.107868	14817.955078
5083.488177	0.085580	0.107868	14896.003906
5084.498361	1.087211	0.105717	460.977356
5084.499238	1.615177	0.105717	1877.487549
5084.500197	1.610830	0.105717	3422.273437
5084.501166	1.566207	0.105717	4939.928223
5084.502083	1.523672	0.105717	6337.135254
5084.502954	1.483557	0.105717	7629.313477
5084.503997	1.439670	0.105717	9130.889648
5084.504877	1.402310	0.105717	10364.921875
5084.505744	1.367439	0.105717	11550.491211
5084.506640	1.331580	0.105717	12743.586914
5084.507669	1.229213	0.105717	14008.447266
5084.508569	0.230863	0.105717	14216.223633
5084.509442	0.085719	0.105717	14291.056641
5084.510430	0.085631	0.105717	14375.660156
5084.511363	0.085627	0.105717	14455.550781
5084.512291	0.085558	0.105717	14534.948242
5084.513158	0.085635	0.105717	14609.193359
5084.514195	0.085558	0.105717	14697.916992
5084.515074	0.085573	0.105717	14773.134766
5084.515939	0.085642	0.105717	14847.214844
5084.516896	0.085649	0.105717	14929.181641
5085.545403	1.087145	0.097475	462.036499
5085.546375	1.615748	0.097475	2032.543823
5085.547400	1.604004	0.097475	3676.647949
5085.548283	1.562417	0.097475	5056.262207
5085.549145	1.521537	0.097475	6367.827148
5085.550216	1.474362	0.097475	7946.868164
5085.551142	1.434159	0.097475	9274.899414
5085.552014	1.398054	0.097475	10494.002930
5085.552977	1.360364	0.097475	11804.033203
5085.554009	1.319971	0.097475	13166.243164
5085.554905	1.069570	0.097475	14124.578125
5085.555775	0.147561	0.097475	14252.956055
5085.556829	0.085602	0.097475	14343.180664
5085.557765	0.085598	0.097475	14423.300781
5085.558642	0.085668	0.097475	14498.431641
5085.559572	0.085668	0.097475	14578.102539
5085.560613	0.085624	0.097475	14667.237305
5085.561504	0.085671	0.097475	14743.570312
5085.562367	0.085671	0.097475	14817.504883
5085.563409	0.085675	0.097475	14906.778320
5085.564360	0.085584	0.097475	14988.167969
5086.575109	1.117419	0.108855	556.474915
5086.576024	1.621805	0.108855	2040.427002
5086.576941	1.607717	0.108855	3514.703613
5086.577824	1.566617	0.108855	4898.026855
5086.578754	1.522617	0.108855	6314.061035
5086.579713	1.478881	0.108855	7732.307617
5086.580646	1.439202	0.108855	9075.083008
5086.581514	1.402863	0.108855	10292.767578
5086.582477	1.365194	0.108855	11607.449219
5086.583430	1.328580	0.108855	12873.585937
5086.584326	1.252947	0.108855	13996.226562
5086.585263	0.255480	0.108855	14235.611328
5086.586219	0.085613	0.108855	14317.457031
5086.587090	0.085649	0.108855	14392.057617
5086.587955	0.085657	0.108855	14466.150391
5086.588920	0.085587	0.108855	14548.742187
5086.589860	0.085668	0.108855	14629.269531
5086.590754	0.085620	0.108855	14705.813477
5086.591666	0.085573	0.108855	14783.855469
5086.592614	0.085675	0.108855	14865.075195
5086.593531	0.085664	0.108855	14943.628906
5087.620034	1.090686	0.118929	464.632233
5087.620951	1.616063	0.118929	1946.562134
5087.621911	1.608625	0.118929	3490.842529
5087.622835	1.565683	0.118929	4937.534180
5087.623704	1.524620	0.118929	6262.429199
5087.624683	1.481111	0.118929	7712.436523
5087.625627	1.440652	0.118929	9072.412109
5087.626520	1.403064	0.118929	10325.348633
5087.627411	1.367549	0.118929	11543.834961
5087.628358	1.330389	0.118929	12803.713867
5087.629276	1.269785	0.118929	13969.376953
5087.630157	0.294313	0.118929	14228.666016
5087.631118	0.085730	0.118929	14311.052734
5087.632068	0.085584	0.118929	14392.357422
5087.632959	0.085616	0.118929	14468.641602
5087.633869	0.085664	0.118929	14546.595703
5087.634795	0.085558	0.118929	14625.822266
5087.635738	0.085613	0.118929	14706.554687
5087.636620	0.085675	0.118929	14782.120117
5087.637550	0.085646	0.118929	14861.770508
5087.638495	0.085594	0.118929	14942.657227
5088.647639	1.122385	0.113862	496.094299
5088.648518	1.616971	0.113862	1917.412109
5088.649387	1.613353	0.113862	3319.416016
5088.650389	1.568463	0.113862	4891.016113
5088.651275	1.525320	0.113862	6242.449219
5088.652194	1.483799	0.113862	7606.060547
5088.653074	1.445394	0.113862	8878.007812
5088.654038	1.405613	0.113862	10233.018555
5088.654969	1.367926	0.113862	11506.557617
5088.655896	1.332418	0.113862	12741.708984
5088.656761	1.293160	0.113862	13860.292969
5088.657740	0.321182	0.113862	14174.729492
5088.658697	0.085844	0.113862	14256.881836
5088.659581	0.085635	0.113862	14332.583008
5088.660505	0.085624	0.113862	14411.699219
5088.661446	0.085584	0.113862	14492.233398
5088.662333	0.085649	0.113862	14568.204102
5088.663191	0.085631	0.113862	14641.675781
5088.664189	0.085624	0.113862	14727.127930
5088.665131	0.085657	0.113862	14807.816406
5088.666015	0.085668	0.113862	14883.546875
5089.694154	1.106671	0.096882	486.935272
5089.695031	1.616473	0.096882	1904.582520
5089.696014	1.609094	0.096882	3486.322266
5089.697016	1.562351	0.096882	5051.797852
5089.697902	1.521163	0.096882	6399.548828
5089.698764	1.480983	0.096882	7676.155762
5089.699842	1.436052	0.096882	9224.219727
5089.700760	1.397695	0.096882	10507.303711
5089.701629	1.363334	0.096882	11692.041016
5089.702593	1.325969	0.096882	12970.275391
5089.703617	1.076389	0.096882	14072.498047
5089.704518	0.147524	0.096882	14205.417969
5089.705384	0.085576	0.096882	14279.527344
5089.706429	0.085591	0.096882	14368.969727
5089.707378	0.085620	0.096882	14450.223633
5089.708253	0.085646	0.096882	14525.164062
5089.709195	0.085675	0.096882	14605.870117
5089.710231	0.085602	0.096882	14694.553711
5089.711120	0.085591	0.096882	14770.643555
5089.711984	0.085573	0.096882	14844.578125
5089.713011	0.085686	0.096882	14932.578125
5090.724799	1.091517	0.111497	463.894867
5090.725862	1.621750	0.111497	2187.815674
5090.726886	1.599763	0.111497	3825.973145
5090.727770	1.557722	0.111497	5202.999512
5090.728755	1.512836	0.111497	6693.142578
5090.729803	1.465664	0.111497	8229.158203
5090.730710	1.426238	0.111497	9522.755859
5090.731586	1.389602	0.111497	10740.046875
5090.732656	1.348744	0.111497	12183.203125
5090.733643	1.310588	0.111497	13476.753906
5090.734542	0.792217	0.111497	14188.957031
5090.735528	0.096086	0.111497	14283.698242
5090.736573	0.085635	0.111497	14373.186523
5090.737480	0.085649	0.111497	14450.870117
5090.738339	0.085609	0.111497	14524.408203
5090.739440	0.085613	0.111497	14618.667969
5090.740415	0.085547	0.111497	14702.076172
5090.741281	0.085616	0.111497	14776.219727
5090.742354	0.085690	0.111497	14868.165039
5090.743377	0.085598	0.111497	14955.732422
5090.744267	0.085580	0.111497	15031.898437
5091.769798	1.101196	0.120839	475.716797
5091.770666	1.615016	0.120839	1877.550537
5091.771657	1.608765	0.120839	3471.836426
5091.772616	1.564794	0.120839	4972.473633
5091.773511	1.522720	0.120839	6335.307617
5091.774429	1.481759	0.120839	7695.562500
5091.775387	1.440410	0.120839	9075.475586
5091.776307	1.401519	0.120839	10364.873047
5091.777186	1.366879	0.120839	11566.359375
5091.778127	1.329932	0.120839	12817.825195
5091.779089	1.229886	0.120839	14000.975586
5091.780001	0.231229	0.120839	14211.856445
5091.780882	0.085584	0.120839	14287.255859
5091.781835	0.085587	0.120839	14368.820312
5091.782776	0.085551	0.120839	14449.323242
5091.783664	0.085613	0.120839	14525.347656
5091.784576	0.085616	0.120839	14603.429687
5091.785502	0.085605	0.120839	14682.700195
5091.786426	0.085613	0.120839	14761.806641
5091.787284	0.085525	0.120839	14835.186523
5091.788246	0.085609	0.120839	14917.542969
5092.797956	1.118185	0.124243	540.083252
5092.798829	1.619293	0.124243	1953.726196
5092.799696	1.611603	0.124243	3350.985840
5092.800621	1.568086	0.124243	4801.465332
5092.801581	1.523489	0.124243	6264.014648
5092.802510	1.481858	0.124243	7640.660645
5092.803382	1.443585	0.124243	8899.466797
5092.804355	1.403925	0.124243	10265.485352
5092.805300	1.366553	0.124243	11556.877930
5092.806195	1.331528	0.124243	12748.595703
5092.807125	1.267789	0.124243	13927.639648
5092.808084	0.273025	0.124243	14189.470703
5092.808962	0.085712	0.124243	14264.725586
5092.809837	0.085635	0.124243	14339.656250
5092.810794	0.085598	0.124243	14421.573242
5092.811743	0.085598	0.124243	14502.805664
5092.812633	0.085605	0.124243	14578.994141
5092.813542	0.085616	0.124243	14656.819336
5092.814490	0.085594	0.124243	14737.962891
5092.815411	0.085591	0.124243	14816.791992
5092.816272	0.085649	0.124243	14890.536133
5093.842369	1.090917	0.107932	466.912384
5093.843347	1.619974	0.107932	2051.247314
5093.844275	1.606893	0.107932	3542.444336
5093.845206	1.564043	0.107932	4998.568359
5093.846071	1.522130	0.107932	6315.210937
5093.847056	1.478320	0.107932	7771.356445
5093.847986	1.438433	0.107932	9109.098633
5093.848872	1.402009	0.107932	10351.279297
5093.849782	1.366153	0.107932	11594.478516
5093.850745	1.329254	0.107932	12874.550781
5093.851657	1.248669	0.107932	14013.336914
5093.852549	0.250858	0.107932	14237.102539
5093.853479	0.085708	0.107932	14316.810547
5093.854426	0.085657	0.107932	14397.927734
5093.855344	0.085616	0.107932	14476.523437
5093.856203	0.085576	0.107932	14550.033203
5093.857145	0.085554	0.107932	14630.625000
5093.858080	0.085554	0.107932	14710.618164
5093.858964	0.085715	0.107932	14786.390625
5093.859950	0.085631	0.107932	14870.823242
5093.860891	0.085627	0.107932	14951.398437
5094.872611	1.168235	0.104141	619.164551
5094.873554	1.624080	0.104141	2150.671631
5094.874478	1.604703	0.104141	3633.417480
5094.875345	1.563450	0.104141	4988.928223
5094.876378	1.516216	0.104141	6555.179199
5094.877265	1.475867	0.104141	7864.272949
5094.878138	1.438282	0.104141	9119.893555
5094.879089	1.399050	0.104141	10450.390625
5094.880058	1.360587	0.104141	11768.799805
5094.880975	1.325057	0.104141	12983.876953
5094.881855	1.207844	0.104141	14046.780273
5094.882878	0.167311	0.104141	14217.939453
5094.883782	0.085503	0.104141	14295.234375
5094.884654	0.085573	0.104141	14369.853516
5094.885510	0.085730	0.104141	14443.238281
5094.886557	0.085547	0.104141	14532.805664
5094.887438	0.085701	0.104141	14608.307617
5094.888300	0.085594	0.104141	14682.089844
5094.889281	0.085701	0.104141	14766.162109
5094.890194	0.085598	0.104141	14844.313477
5094.891104	0.085609	0.104141	14922.217773
5095.919625	1.171183	0.120311	571.537231
5095.920502	1.619575	0.120311	1991.904785
5095.921364	1.610962	0.120311	3380.553955
5095.922419	1.562780	0.120311	5029.286133
5095.923369	1.518684	0.120311	6472.036133
5095.924239	1.478577	0.120311	7758.397949
5095.925180	1.438466	0.120311	9111.994141
5095.926239	1.394883	0.120311	10589.174805
5095.927142	1.359002	0.120311	11816.353516
5095.928015	1.324937	0.120311	12973.023437
5095.929037	1.045382	0.120311	14041.404297
5095.930001	0.128027	0.120311	14164.822266
5095.930880	0.085503	0.120311	14239.979492
5095.931792	0.085602	0.120311	14318.048828
5095.932842	0.085573	0.120311	14407.900391
5095.933728	0.085605	0.120311	14483.747070
5095.934591	0.085573	0.120311	14557.595703
5095.935617	0.085723	0.120311	14645.546875
5095.936574	0.085616	0.120311	14727.481445
5095.937446	0.085565	0.120311	14802.094727
5095.938306	0.085594	0.120311	14875.706055
5096.947136	1.093052	0.123183	467.826172
5096.948084	1.614932	0.123183	1998.781372
5096.949150	1.602360	0.123183	3706.896484
5096.950077	1.558740	0.123183	5151.848633
5096.950955	1.516915	0.123183	6483.700195
5096.952034	1.469363	0.123183	8069.142578
5096.953033	1.426707	0.123183	9494.421875
5096.953936	1.390115	0.123183	10749.695312
5096.954918	1.351630	0.123183	12076.996094
5096.955983	1.311182	0.123183	13473.404297
5096.956891	0.773159	0.123183	14175.432617
5096.957751	0.097874	0.123183	14259.603516
5096.958854	0.085679	0.123183	14354.107422
5096.959821	0.085708	0.123183	14436.987305
5096.960686	0.085627	0.123183	14511.054687
5096.961740	0.085752	0.123183	14601.437500
5096.962783	0.085649	0.123183	14690.769531
5096.963667	0.085770	0.123183	14766.590820
5096.964584	0.085708	0.123183	14845.185547
5096.965634	0.085800	0.123183	14935.275391
5096.966577	0.085584	0.123183	15015.980469
5097.991150	1.159578	0.107533	548.480225
5097.992076	1.621238	0.107533	2049.746338
5097.992961	1.609340	0.107533	3474.011719
5097.993876	1.566442	0.107533	4907.305664
5097.994843	1.521910	0.107533	6378.993164
5097.995769	1.479672	0.107533	7749.168945
5097.996638	1.441827	0.107533	9002.117187
5097.997604	1.402863	0.107533	10357.282227
5097.998545	1.365216	0.107533	11641.950195
5097.999438	1.329620	0.107533	12829.300781
5098.000325	1.254510	0.107533	13942.051758
5098.001299	0.242076	0.107533	14177.833984
5098.002243	0.085642	0.107533	14258.679687
5098.003133	0.085697	0.107533	14334.950195
5098.004028	0.085682	0.107533	14411.635742
5098.004992	0.085591	0.107533	14494.145508
5098.005925	0.085657	0.107533	14574.063477
5098.006785	0.085653	0.107533	14647.725586
5098.007736	0.085638	0.107533	14729.167969
5098.008664	0.085701	0.107533	14808.698242
5098.009584	0.085697	0.107533	14887.539062
5099.021255	1.108433	0.109596	478.842865
5099.022178	1.619213	0.109596	1973.376099
5099.023045	1.610775	0.109596	3369.917969
5099.024019	1.566302	0.109596	4895.496582
5099.024980	1.522269	0.109596	6358.397461
5099.025875	1.481276	0.109596	7684.139160
5099.026784	1.442260	0.109596	8995.153320
5099.027751	1.402603	0.109596	10351.469727
5099.028675	1.365842	0.109596	11613.507812
5099.029542	1.331349	0.109596	12767.787109
5099.030505	1.262695	0.109596	13983.762695
5099.031423	0.251444	0.109596	14214.587891
5099.032347	0.085719	0.109596	14293.791992
5099.033224	0.085668	0.109596	14368.922852
5099.034193	0.085675	0.109596	14451.942383
5099.035116	0.085616	0.109596	14530.966797
5099.035982	0.085671	0.109596	14605.158203
5099.036945	0.085701	0.109596	14687.687500
5099.037868	0.085712	0.109596	14766.799805
5099.038778	0.085726	0.109596	14844.810547
5099.039638	0.085616	0.109596	14918.440430
5100.067824	1.125209	0.119969	519.846436
5100.068713	1.618077	0.119969	1958.317261
5100.069644	1.609768	0.119969	3457.011230
5100.070599	1.565625	0.119969	4952.183105
5100.071510	1.522148	0.119969	6338.860352
5100.072390	1.482063	0.119969	7643.075684
5100.073309	1.441465	0.119969	8967.782227
5100.074267	1.402017	0.119969	10310.914062
5100.075193	1.366033	0.119969	11575.860352
5100.076058	1.331510	0.119969	12727.616211
5100.077030	1.260787	0.119969	13953.101562
5100.077978	0.259534	0.119969	14199.139648
5100.078865	0.085631	0.119969	14275.094727
5100.079783	0.085532	0.119969	14353.613281
5100.080703	0.085584	0.119969	14432.350586
5100.081603	0.085594	0.119969	14509.385742
5100.082476	0.085580	0.119969	14584.096680
5100.083435	0.085518	0.119969	14666.108398
5100.084381	0.085638	0.119969	14747.122070
5100.085269	0.085609	0.119969	14823.142578
5100.086169	0.085594	0.119969	14900.177734
5101.096904	1.115153	0.123993	482.861084
5101.097836	1.618835	0.123993	1991.615723
5101.098699	1.609940	0.123993	3380.994141
5101.099695	1.565596	0.123993	4940.327148
5101.100626	1.522200	0.123993	6357.495117
5101.101506	1.481708	0.123993	7661.397949
5101.102422	1.442549	0.123993	8982.772461
5101.103379	1.403016	0.123993	10325.458984
5101.104309	1.365897	0.123993	11595.743164
5101.105190	1.331283	0.123993	12768.603516
5101.106143	1.250105	0.123993	13959.953125
5101.107113	0.230812	0.123993	14183.840820
5101.107998	0.085657	0.123993	14259.647461
5101.109155	0.085668	0.123993	14358.764648
5101.110075	0.085657	0.123993	14437.568359
5101.110992	0.085660	0.123993	14516.119141
5101.111857	0.085616	0.123993	14590.177734
5101.112851	0.085576	0.123993	14675.240234
5101.113767	0.085609	0.123993	14753.658203
5101.114667	0.085631	0.123993	14830.726562
5101.115541	0.085624	0.123993	14905.561523
5102.140349	1.087939	0.116323	464.550110
5102.141212	1.613580	0.116323	1857.070068
5102.142253	1.607681	0.116323	3530.665527
5102.143142	1.565929	0.116323	4922.776367
5102.144020	1.524862	0.116323	6261.605469
5102.144954	1.482136	0.116323	7645.920898
5102.145968	1.439074	0.116323	9105.141602
5102.146886	1.400867	0.116323	10391.137695
5102.147755	1.365970	0.116323	11578.166016
5102.148843	1.324373	0.116323	13019.083008
5102.149750	1.160647	0.116323	14071.790039
5102.150633	0.184893	0.116323	14235.049805
5102.151519	0.085569	0.116323	14310.864258
5102.152562	0.085576	0.116323	14400.120117
5102.153456	0.085613	0.116323	14476.658203
5102.154334	0.085635	0.116323	14551.845703
5102.155338	0.085649	0.116323	14637.837891
5102.156263	0.085624	0.116323	14717.040039
5102.157181	0.085613	0.116323	14795.632812
5102.158041	0.085668	0.116323	14869.306641
5102.159084	0.085679	0.116323	14958.669922
5103.169989	1.097234	0.106885	474.005035
5103.170849	1.613947	0.106885	1861.999023
5103.171956	1.604875	0.106885	3638.596191
5103.172846	1.561959	0.106885	5028.740234
5103.173730	1.521288	0.106885	6373.558594
5103.174719	1.476548	0.106885	7833.864258
5103.175722	1.433372	0.106885	9271.536133
5103.176615	1.396582	0.106885	10518.683594
5103.177480	1.361081	0.106885	11696.019531
5103.178579	1.320044	0.106885	13146.748047
5103.179507	1.042383	0.106885	14114.079102
5103.180390	0.135930	0.106885	14234.105469
5103.181352	0.085646	0.106885	14316.497070
5103.182347	0.085605	0.106885	14401.674805
5103.183224	0.085682	0.106885	14476.818359
5103.184081	0.085653	0.106885	14550.222656
5103.185151	0.085708	0.106885	14641.930664
5103.186067	0.085587	0.106885	14720.328125
5103.186933	0.085616	0.106885	14794.471680
5103.187895	0.085719	0.106885	14876.933594
5103.188921	0.085701	0.106885	14964.862305
5104.215531	1.148837	0.111840	534.209045
5104.216410	1.618323	0.111840	1956.714844
5104.217271	1.611361	0.111840	3344.096680
5104.218334	1.563226	0.111840	5005.806152
5104.219266	1.519702	0.111840	6422.168457
5104.220141	1.479829	0.111840	7717.019043
5104.221103	1.438942	0.111840	9101.281250
5104.222156	1.395685	0.111840	10570.937500
5104.223035	1.360393	0.111840	11766.722656
5104.223907	1.325955	0.111840	12922.955078
5104.224956	1.048528	0.111840	14022.861328
5104.225905	0.133352	0.111840	14149.412109
5104.226782	0.085503	0.111840	14224.398437
5104.227728	0.085671	0.111840	14305.443359
5104.228754	0.085624	0.111840	14393.292969
5104.229640	0.085602	0.111840	14469.135742
5104.230502	0.085631	0.111840	14542.950195
5104.231548	0.085701	0.111840	14632.592773
5104.232496	0.085631	0.111840	14713.771484
5104.233369	0.085594	0.111840	14788.495117
5104.234266	0.085693	0.111840	14865.362305
5105.247275	1.163873	0.124791	623.836060
5105.248332	1.624794	0.124791	2341.242920
5105.249256	1.599229	0.124791	3818.930176
5105.250122	1.557147	0.124791	5167.419434
5105.251198	1.508701	0.124791	6790.782227
5105.252195	1.463844	0.124791	8250.234375
5105.253075	1.426187	0.124791	9505.278320
5105.254067	1.385793	0.124791	10879.985352
5105.255131	1.344639	0.124791	12310.680664
5105.256024	1.309786	0.124791	13480.320312
5105.256905	0.753065	0.124791	14143.770508
5105.258008	0.089180	0.124791	14242.135742
5105.258980	0.085540	0.124791	14325.280273
5105.259847	0.085573	0.124791	14399.471680
5105.260891	0.085682	0.124791	14488.923828
5105.261930	0.085653	0.124791	14577.916992
5105.262820	0.085613	0.124791	14654.112305
5105.263742	0.085587	0.124791	14733.023437
5105.264812	0.085587	0.124791	14824.601562
5105.265764	0.085609	0.124791	14906.101562
5105.266629	0.085565	0.124791	14980.115234
5106.289104	1.111377	0.122221	486.783081
5106.289980	1.615437	0.122221	1901.905884
5106.291044	1.604293	0.122221	3608.873779
5106.292047	1.557447	0.122221	5170.993652
5106.292942	1.516154	0.122221	6527.951172
5106.293910	1.472721	0.122221	7953.544922
5106.294967	1.427849	0.122221	9462.781250
5106.295883	1.390031	0.122221	10736.048828
5106.296751	1.354724	0.122221	11911.949219
5106.297847	1.313763	0.122221	13351.833984
5106.298840	0.768384	0.122221	14114.838867
5106.299734	0.095885	0.122221	14200.560547
5106.300734	0.085635	0.122221	14286.195312
5106.301780	0.085591	0.122221	14375.723633
5106.302656	0.085576	0.122221	14450.688477
5106.303529	0.085529	0.122221	14525.354492
5106.304617	0.085613	0.122221	14618.500977
5106.305570	0.085507	0.122221	14699.988281
5106.306431	0.085529	0.122221	14773.627930
5106.307489	0.085671	0.122221	14864.268555
5106.308526	0.085576	0.122221	14953.010742
5107.320316	1.160973	0.114575	550.301147
5107.321210	1.619546	0.114575	1998.175049
5107.322120	1.608853	0.114575	3462.230957
5107.323003	1.566940	0.114575	4845.838867
5107.324084	1.517487	0.114575	6486.241699
5107.325115	1.471454	0.114575	8003.310547
5107.326014	1.432841	0.114575	9291.434570
5107.326953	1.394381	0.114575	10600.758789
5107.328031	1.351838	0.114575	12058.041016
5107.328970	1.315536	0.114575	13293.329102
5107.329843	0.974930	0.114575	14144.443359
5107.330891	0.103066	0.114575	14252.457031
5107.331889	0.085521	0.114575	14337.807617
5107.332783	0.085609	0.114575	14414.341797
5107.333759	0.085624	0.114575	14497.910156
5107.334798	0.085649	0.114575	14586.900391
5107.335713	0.085587	0.114575	14665.212891
5107.336569	0.085576	0.114575	14738.465820
5107.337637	0.085686	0.114575	14829.978516
5107.338632	0.085591	0.114575	14915.141602
5107.339505	0.085671	0.114575	14989.932617
5108.363243	1.122565	0.110277	530.973083
5108.364167	1.620535	0.110277	2028.347168
5108.365056	1.609010	0.110277	3458.757324
5108.365979	1.567090	0.110277	4905.181152
5108.366925	1.522280	0.110277	6345.258301
5108.367859	1.479540	0.110277	7727.148437
5108.368738	1.441739	0.110277	8994.437500
5108.369664	1.403207	0.110277	10293.806641
5108.370617	1.365582	0.110277	11595.207031
5108.371531	1.329554	0.110277	12810.419922
5108.372413	1.264819	0.110277	13925.990234
5108.373371	0.273604	0.110277	14188.102539
5108.374326	0.085616	0.110277	14269.866211
5108.375216	0.085620	0.110277	14346.068359
5108.376111	0.085598	0.110277	14422.678711
5108.377054	0.085646	0.110277	14503.442383
5108.377994	0.085551	0.110277	14583.860352
5108.378879	0.085576	0.110277	14659.595703
5108.379799	0.085584	0.110277	14738.333008
5108.380750	0.085598	0.110277	14819.737305
5108.381651	0.085591	0.110277	14896.854492
5109.396466	1.131954	0.121157	529.754639
5109.397356	1.619022	0.121157	1970.684448
5109.398224	1.610867	0.121157	3368.916748
5109.399194	1.567159	0.121157	4889.061523
5109.400122	1.522961	0.121157	6302.369629
5109.401048	1.480964	0.121157	7673.742676
5109.401917	1.442684	0.121157	8927.435547
5109.402900	1.402786	0.121157	10306.374023
5109.403849	1.365432	0.121157	11602.168945
5109.404743	1.330349	0.121157	12791.500977
5109.405640	1.256521	0.121157	13918.600586
5109.406612	0.253282	0.121157	14164.791016
5109.407547	0.085565	0.121157	14244.794922
5109.408422	0.085584	0.121157	14319.680664
5109.409360	0.085646	0.121157	14400.016602
5109.410312	0.085565	0.121157	14481.474609
5109.411237	0.085598	0.121157	14560.653320
5109.412099	0.085605	0.121157	14634.445312
5109.413064	0.085551	0.121157	14717.001953
5109.414010	0.085602	0.121157	14797.981445
5109.414899	0.085635	0.121157	14874.110352
5110.438906	1.125590	0.128763	540.283020
5110.439808	1.618466	0.128763	2000.139160
5110.440681	1.610295	0.128763	3405.927002
5110.441593	1.568540	0.128763	4836.435547
5110.442541	1.523126	0.128763	6280.359375
5110.443483	1.480342	0.128763	7674.841309
5110.444376	1.442241	0.128763	8962.762695
5110.445296	1.403840	0.128763	10254.295898
5110.446254	1.366143	0.128763	11563.060547
5110.447180	1.329979	0.128763	12794.621094
5110.448050	1.273447	0.128763	13902.520508
5110.449027	0.283385	0.128763	14179.387695
5110.449973	0.085642	0.128763	14260.405273
5110.450861	0.085594	0.128763	14336.413086
5110.451735	0.085657	0.128763	14411.277344
5110.452681	0.085668	0.128763	14492.319336
5110.453616	0.085587	0.128763	14572.343750
5110.454512	0.085726	0.128763	14649.154297
5110.455424	0.085602	0.128763	14727.222656
5110.456387	0.085627	0.128763	14809.681641
5110.457279	0.085605	0.128763	14886.041992
5111.469541	1.134126	0.120702	521.697937
5111.470432	1.618711	0.120702	1963.969482
5111.471374	1.609017	0.120702	3479.663574
5111.472307	1.565303	0.120702	4940.090820
5111.473239	1.521903	0.120702	6358.504395
5111.474104	1.482176	0.120702	7640.586914
5111.475113	1.439165	0.120702	9092.704102
5111.476044	1.399838	0.120702	10395.953125
5111.476979	1.363488	0.120702	11670.814453
5111.477846	1.329009	0.120702	12823.065430
5111.478814	1.210192	0.120702	13994.531250
5111.479736	0.217108	0.120702	14194.705078
5111.480610	0.085605	0.120702	14269.524414
5111.481608	0.085605	0.120702	14354.958984
5111.482507	0.085631	0.120702	14431.941406
5111.483426	0.085620	0.120702	14510.625977
5111.484290	0.085642	0.120702	14584.621094
5111.485285	0.085671	0.120702	14669.864258
5111.486211	0.085605	0.120702	14749.134766
5111.487090	0.085558	0.120702	14824.339844
5111.488012	0.085671	0.120702	14903.329102
5112.512973	1.100376	0.116698	479.763947
5112.513865	1.614584	0.116698	1919.972656
5112.514882	1.606392	0.116698	3553.672852
5112.515761	1.564739	0.116698	4929.078125
5112.516644	1.523859	0.116698	6274.645508
5112.517642	1.479423	0.116698	7751.109375
5112.518568	1.438198	0.116698	9082.880859
5112.519493	1.400603	0.116698	10378.438477
5112.520368	1.364883	0.116698	11572.710937
5112.521409	1.325431	0.116698	12952.484375
5112.522308	1.208156	0.116698	14038.616211
5112.523193	0.216866	0.116698	14230.542969
5112.524186	0.085708	0.116698	14315.651367
5112.525114	0.085609	0.116698	14395.096680
5112.526032	0.085653	0.116698	14473.726562
5112.526892	0.085609	0.116698	14547.350586
5112.527906	0.085638	0.116698	14634.187500
5112.528796	0.085631	0.116698	14710.399414
5112.529669	0.085598	0.116698	14785.126953
5112.530598	0.085675	0.116698	14864.718750
5112.531576	0.085605	0.116698	14948.440430
5113.545164	1.109641	0.116142	489.351776
5113.546035	1.615173	0.116142	1896.167725
5113.547049	1.607578	0.116142	3526.251953
5113.548053	1.560615	0.116142	5093.109375
5113.548928	1.519391	0.116142	6422.576172
5113.549800	1.478240	0.116142	7711.601074
5113.550896	1.432965	0.116142	9282.130859
5113.551823	1.394634	0.116142	10574.956055
5113.552706	1.360049	0.116142	11775.878906
5113.553692	1.321974	0.116142	13079.345703
5113.554693	1.019685	0.116142	14100.050781
5113.555590	0.127075	0.116142	14214.037109
5113.556452	0.085631	0.116142	14287.851562
5113.557546	0.085624	0.116142	14381.524414
5113.558465	0.085562	0.116142	14460.155273
5113.559339	0.085701	0.116142	14535.057617
5113.560344	0.085712	0.116142	14621.198242
5113.561350	0.085543	0.116142	14707.254883
5113.562236	0.085642	0.116142	14783.133789
5113.563093	0.085624	0.116142	14856.513672
5113.564157	0.085613	0.116142	14947.605469
5114.588103	1.092363	0.125717	472.993286
5114.588971	1.614639	0.125717	1874.499634
5114.589981	1.607076	0.125717	3497.646973
5114.591028	1.559143	0.125717	5130.069824
5114.591914	1.517545	0.125717	6474.614746
5114.592845	1.475369	0.125717	7848.183105
5114.593921	1.429504	0.125717	9386.330078
5114.594866	1.390939	0.125717	10700.767578
5114.595743	1.356119	0.125717	11890.083984
5114.596804	1.315206	0.125717	13285.517578
5114.597834	0.792176	0.125717	14101.458984
5114.598728	0.096379	0.125717	14187.622070
5114.599682	0.085682	0.125717	14269.363281
5114.600726	0.085682	0.125717	14358.815430
5114.601648	0.085646	0.125717	14437.781250
5114.602524	0.085675	0.125717	14512.833008
5114.603511	0.085730	0.125717	14597.448242
5114.604514	0.085638	0.125717	14683.343750
5114.605391	0.085686	0.125717	14758.490234
5114.606247	0.085708	0.125717	14831.856445
5114.607308	0.085679	0.125717	14922.761719
5115.619916	1.241459	0.131615	697.699829
5115.620945	1.625464	0.131615	2370.302246
5115.621841	1.599829	0.131615	3803.749023
5115.622788	1.555591	0.131615	5276.893555
5115.623854	1.505867	0.131615	6882.147461
5115.624797	1.463855	0.131615	8262.562500
5115.625664	1.426472	0.131615	9499.313477
5115.626720	1.384003	0.131615	10960.820312
5115.627728	1.344697	0.131615	12316.275391
5115.628621	1.310511	0.131615	13486.562500
5115.629604	0.700935	0.131615	14175.582031
5115.630638	0.089026	0.131615	14267.634766
5115.631554	0.085671	0.131615	14346.109375
5115.632412	0.085613	0.131615	14419.565430
5115.633492	0.085737	0.131615	14512.162109
5115.634488	0.085627	0.131615	14597.447266
5115.635357	0.085767	0.131615	14671.978516
5115.636327	0.085701	0.131615	14755.108398
5115.637387	0.085697	0.131615	14845.947266
5115.638287	0.085671	0.131615	14923.051758
5115.639152	0.085649	0.131615	14997.138672
5116.660752	1.162284	0.114655	589.278015
5116.661630	1.620231	0.114655	2011.840576
5116.662521	1.608050	0.114655	3444.613525
5116.663612	1.558715	0.114655	5145.170898
5116.664567	1.514480	0.114655	6591.499023
5116.665435	1.474801	0.114655	7871.625977
5116.666448	1.431266	0.114655	9321.498047
5116.667518	1.388426	0.114655	10807.114258
5116.668395	1.353102	0.114655	11993.784180
5116.669331	1.317125	0.114655	13226.613281
5116.670416	0.772419	0.114655	14064.688477
5116.671349	0.093915	0.114655	14152.310547
5116.672215	0.085543	0.114655	14226.390625
5116.673271	0.085734	0.114655	14316.925781
5116.674280	0.085616	0.114655	14403.312500
5116.675165	0.085565	0.114655	14479.038086
5116.676117	0.085631	0.114655	14560.558594
5116.677157	0.085649	0.114655	14649.633789
5116.678086	0.085616	0.114655	14729.171875
5116.678946	0.085664	0.114655	14802.842773
5116.680006	0.085723	0.114655	14893.708984
5117.694955	1.115797	0.121717	524.424683
5117.695888	1.620304	0.121717	2036.168335
5117.696768	1.608805	0.121717	3451.916504
5117.697686	1.567211	0.121717	4890.615723
5117.698635	1.522405	0.121717	6335.377930
5117.699569	1.479631	0.121717	7717.353516
5117.700443	1.441567	0.121717	8977.283203
5117.701366	1.402994	0.121717	10272.247070
5117.702318	1.365579	0.121717	11572.278320
5117.703245	1.329591	0.121717	12804.809570
5117.704131	1.257583	0.121717	13919.028320
5117.705109	0.259424	0.121717	14172.745117
5117.706044	0.085584	0.121717	14252.765625
5117.706951	0.085551	0.121717	14330.360352
5117.707809	0.085627	0.121717	14403.829102
5117.708774	0.085576	0.121717	14486.410156
5117.709718	0.085616	0.121717	14567.232422
5117.710589	0.085646	0.121717	14641.830078
5117.711490	0.085598	0.121717	14718.954102
5117.712450	0.085693	0.121717	14801.219727
5117.713370	0.085591	0.121717	14879.962891
5118.736829	1.099296	0.130700	467.200623
5118.737802	1.619308	0.130700	2042.787109
5118.738737	1.607065	0.130700	3545.393311
5118.739613	1.565775	0.130700	4917.012207
5118.740556	1.522943	0.130700	6353.147461
5118.741494	1.479111	0.130700	7740.553711
5118.742416	1.439169	0.130700	9067.466797
5118.743314	1.402452	0.130700	10326.869141
5118.744231	1.365762	0.130700	11579.272461
5118.745188	1.328540	0.130700	12850.685547
5118.746114	1.254811	0.130700	14012.640625
5118.746986	0.269513	0.130700	14247.656250
5118.747948	0.085697	0.130700	14330.096680
5118.748901	0.085598	0.130700	14411.671875
5118.749779	0.085646	0.130700	14486.869141
5118.750656	0.085624	0.130700	14561.960937
5118.751597	0.085642	0.130700	14642.549805
5118.752520	0.085598	0.130700	14721.556641
5118.753384	0.085605	0.130700	14795.519531
5118.754395	0.085635	0.130700	14882.096680
5118.755312	0.085584	0.130700	14960.577148
5119.769526	1.090093	0.126624	457.838959
5119.770564	1.621923	0.126624	2141.394531
5119.771464	1.605472	0.126624	3586.319824
5119.772347	1.564270	0.126624	4967.570312
5119.773303	1.520654	0.126624	6421.315918
5119.774282	1.475779	0.126624	7866.103516
5119.775207	1.436199	0.126624	9194.586914
5119.776074	1.399937	0.126624	10408.332031
5119.777131	1.359250	0.126624	11845.059570
5119.778020	1.324087	0.126624	13022.172852
5119.778897	1.202021	0.126624	14076.345703
5119.779814	0.211589	0.126624	14270.373047
5119.780813	0.085605	0.126624	14355.892578
5119.781737	0.085631	0.126624	14435.015625
5119.782622	0.085668	0.126624	14510.832031
5119.783596	0.085616	0.126624	14594.222656
5119.784515	0.085642	0.126624	14672.927734
5119.785443	0.085660	0.126624	14752.420898
5119.786306	0.085712	0.126624	14826.389648
5119.787346	0.085646	0.126624	14915.460937
5119.788239	0.085620	0.126624	14991.919922
5120.809485	1.173867	0.118929	590.455200
5120.810497	1.624303	0.118929	2234.250000
5120.811388	1.603140	0.118929	3662.647461
5120.812360	1.558337	0.118929	5177.351562
5120.813422	1.508818	0.118929	6779.716797
5120.814354	1.466748	0.118929	8146.726074
5120.815216	1.429138	0.118929	9378.643555
5120.816292	1.386083	0.118929	10870.068359
5120.817297	1.346891	0.118929	12223.693359
5120.818176	1.313042	0.118929	13377.857422
5120.819040	0.888303	0.118929	14145.351562
5120.820137	0.094929	0.118929	14249.489258
5120.821042	0.085496	0.118929	14326.862305
5120.821909	0.085565	0.118929	14401.046875
5120.822874	0.085719	0.118929	14483.765625
5120.823890	0.085616	0.118929	14570.751953
5120.824783	0.085668	0.118929	14647.252930
5120.825647	0.085624	0.118929	14721.231445
5120.826713	0.085763	0.118929	14812.654297
5120.827643	0.085580	0.118929	14892.243164
5120.828522	0.085613	0.118929	14967.497070
5121.843238	1.187369	0.116871	616.244690
5121.844174	1.622955	0.116871	2135.330811
5121.845039	1.606278	0.116871	3524.761230
5121.846110	1.556971	0.116871	5192.277344
5121.847141	1.509434	0.116871	6748.503418
5121.848024	1.469315	0.116871	8045.908691
5121.848996	1.428102	0.116871	9434.023437
5121.850082	1.384534	0.116871	10937.626953
5121.850977	1.348806	0.116871	12144.808594
5121.851847	1.314012	0.116871	13287.999023
5121.852942	0.701653	0.116871	14056.308594
5121.853940	0.088938	0.116871	14145.068359
5121.854836	0.085605	0.116871	14221.770508
5121.855810	0.085756	0.116871	14305.296875
5121.856874	0.085671	0.116871	14396.451172
5121.857760	0.085602	0.116871	14472.293945
5121.858636	0.085682	0.116871	14547.351562
5121.859732	0.085719	0.116871	14641.299805
5121.860687	0.085602	0.116871	14723.049805
5121.861552	0.085613	0.116871	14797.104492
5121.862589	0.085730	0.116871	14886.006836
5122.886602	1.096948	0.129717	479.366394
5122.887472	1.614595	0.129717	1884.063721
5122.888460	1.608790	0.129717	3473.548340
5122.889388	1.565636	0.129717	4926.458496
5122.890268	1.524214	0.129717	6267.766602
5122.891187	1.482942	0.129717	7630.590332
5122.892102	1.441725	0.129717	8949.768555
5122.893055	1.402683	0.129717	10286.525391
5122.893956	1.367344	0.129717	11518.501953
5122.894869	1.331741	0.129717	12734.380859
5122.895820	1.267562	0.129717	13939.832031
5122.896748	0.279122	0.129717	14198.857422
5122.897618	0.085858	0.129717	14273.553711
5122.898577	0.085609	0.129717	14355.653320
5122.899503	0.085584	0.129717	14434.903320
5122.900433	0.085562	0.129717	14514.475586
5122.901295	0.085594	0.129717	14588.257812
5122.902262	0.085591	0.129717	14671.024414
5122.903171	0.085631	0.129717	14748.863281
5122.904053	0.085565	0.129717	14824.332031
5122.905006	0.085635	0.129717	14905.942383
5123.918825	1.107458	0.135434	514.968201
5123.919711	1.618301	0.135434	1948.782715
5123.920604	1.610193	0.135434	3386.684814
5123.921548	1.566057	0.135434	4865.042969
5123.922504	1.522397	0.135434	6320.455078
5123.923397	1.481558	0.135434	7643.485840
5123.924330	1.441959	0.135434	8988.833984
5123.925289	1.402324	0.135434	10333.663086
5123.926170	1.366457	0.135434	11537.511719
5123.927089	1.331173	0.135434	12760.859375
5123.928039	1.249233	0.135434	13947.630859
5123.928984	0.234690	0.135434	14169.413086
5123.929879	0.085660	0.135434	14246.079102
5123.930799	0.085668	0.135434	14324.893555
5123.931768	0.085609	0.135434	14407.848633
5123.932688	0.085664	0.135434	14486.659180
5123.933547	0.085635	0.135434	14560.219727
5123.934511	0.085668	0.135434	14642.803711
5123.935456	0.085627	0.135434	14723.721680
5123.936343	0.085796	0.135434	14799.822266
5123.937225	0.085668	0.135434	14875.380859
5124.959160	1.081820	0.119908	456.528107
5124.960118	1.617048	0.119908	2005.660400
5124.961024	1.608032	0.119908	3462.537598
5124.961953	1.565643	0.119908	4917.020508
5124.962818	1.524327	0.119908	6235.563477
5124.963815	1.480250	0.119908	7711.373047
5124.964745	1.440132	0.119908	9050.695312
5124.965627	1.403331	0.119908	10288.433594
5124.966523	1.367589	0.119908	11513.792969
5124.967483	1.330225	0.119908	12790.808594
5124.968434	1.255906	0.119908	13985.174805
5124.969315	0.273091	0.119908	14225.767578
5124.970233	0.085935	0.119908	14304.656250
5124.971178	0.085547	0.119908	14385.498047
5124.972101	0.085649	0.119908	14464.552734
5124.972977	0.085580	0.119908	14539.520508
5124.973910	0.085584	0.119908	14619.370117
5124.974860	0.085627	0.119908	14700.715820
5124.975743	0.085682	0.119908	14776.373047
5124.976864	0.085620	0.119908	14872.353516
5124.977813	0.085576	0.119908	14953.565430
5125.993009	1.205969	0.120940	654.841309
5125.993937	1.623549	0.120940	2161.494385
5125.994875	1.603275	0.120940	3665.366211
5125.995743	1.560989	0.120940	5020.304687
5125.996768	1.514971	0.120940	6573.149414
5125.997649	1.475024	0.120940	7872.645996
5125.998522	1.437675	0.120940	9127.736328
5125.999531	1.397296	0.120940	10537.608398
5126.000453	1.359705	0.120940	11791.255859
5126.001358	1.324292	0.120940	12989.740234
5126.002241	1.175383	0.120940	14027.603516
5126.003266	0.158463	0.120940	14190.028320
5126.004157	0.085602	0.120940	14266.299805
5126.005034	0.085638	0.120940	14341.404297
5126.005986	0.085638	0.120940	14422.931641
5126.006968	0.085653	0.120940	14507.042969
5126.007886	0.085627	0.120940	14585.649414
5126.008749	0.085697	0.120940	14659.605469
5126.009779	0.085675	0.120940	14747.850586
5126.010663	0.085594	0.120940	14823.515625
5126.011530	0.085730	0.120940	14897.843750
5127.034299	1.090042	0.120952	464.357697
5127.035162	1.613123	0.120952	1856.482422
5127.036272	1.603931	0.120952	3636.845215
5127.037183	1.560787	0.120952	5058.722656
5127.038065	1.519896	0.120952	6399.270996
5127.039075	1.474622	0.120952	7888.638672
5127.040062	1.432042	0.120952	9302.064453
5127.040946	1.395791	0.120952	10535.943359
5127.041807	1.360386	0.120952	11707.235352
5127.042897	1.319831	0.120952	13145.851562
5127.043809	1.055632	0.120952	14108.587891
5127.044688	0.144210	0.120952	14235.348633
5127.045662	0.085569	0.120952	14318.692383
5127.046662	0.085671	0.120952	14404.363281
5127.047555	0.085657	0.120952	14480.854492
5127.048417	0.085679	0.120952	14554.709961
5127.049497	0.085613	0.120952	14647.171875
5127.050416	0.085580	0.120952	14725.819336
5127.051291	0.085584	0.120952	14800.705078
5127.052259	0.085675	0.120952	14883.638672
5127.053264	0.085638	0.120952	14969.705078
5128.068024	1.105016	0.129915	464.106659
5128.069130	1.622527	0.129915	2258.621338
5128.070081	1.600378	0.129915	3780.581055
5128.070946	1.559333	0.129915	5129.404297
5128.071990	1.511276	0.129915	6707.175781
5128.073030	1.465030	0.129915	8230.807617
5128.073908	1.427358	0.129915	9484.028320
5128.074850	1.389108	0.129915	10792.567383
5128.075930	1.346843	0.129915	12247.158203
5128.076863	1.310790	0.129915	13470.125000
5128.077731	0.834664	0.129915	14194.613281
5128.078791	0.093270	0.129915	14293.479492
5128.079810	0.085551	0.129915	14380.655273
5128.080677	0.085653	0.129915	14454.916016
5128.081635	0.085627	0.129915	14536.947266
5128.082685	0.085657	0.129915	14626.886719
5128.083602	0.085598	0.129915	14705.379883
5128.084472	0.085682	0.129915	14779.923828
5128.085538	0.085723	0.129915	14871.303711
5128.086538	0.085635	0.129915	14956.938477
5128.087430	0.085675	0.129915	15033.360352
5129.108977	1.127069	0.131852	536.484924
5129.109851	1.617737	0.131852	1950.386963
5129.110766	1.609230	0.131852	3422.832031
5129.111725	1.565065	0.131852	4923.729004
5129.112658	1.521387	0.131852	6343.182617
5129.113547	1.480862	0.131852	7659.668945
5129.114491	1.440414	0.131852	9019.419922
5129.115432	1.400746	0.131852	10337.521484
5129.116371	1.364322	0.131852	11618.620117
5129.117240	1.329657	0.131852	12774.091797
5129.118220	1.230363	0.131852	13979.846680
5129.119172	0.229724	0.131852	14198.543945
5129.120057	0.085573	0.131852	14274.275391
5129.120990	0.085770	0.131852	14354.298828
5129.122051	0.085671	0.131852	14445.196289
5129.123061	0.085704	0.131852	14531.757812
5129.123928	0.085591	0.131852	14605.964844
5129.124889	0.085822	0.131852	14688.439453
5129.125945	0.085653	0.131852	14778.888672
5129.126856	0.085627	0.131852	14856.895508
5129.127727	0.085642	0.131852	14931.490234
5130.141641	1.100094	0.120247	478.540863
5130.142524	1.615444	0.120247	1904.978271
5130.143447	1.610881	0.120247	3391.821777
5130.144407	1.566833	0.120247	4895.981934
5130.145339	1.522844	0.120247	6315.272949
5130.146209	1.482814	0.120247	7605.320801
5130.147141	1.442457	0.120247	8949.691406
5130.148097	1.402961	0.120247	10290.922852
5130.149029	1.366480	0.120247	11564.481445
5130.149891	1.331744	0.120247	12712.445312
5130.150846	1.263889	0.120247	13919.458984
5130.151798	0.275153	0.120247	14181.404297
5130.152690	0.085803	0.120247	14257.940430
5130.153601	0.085558	0.120247	14335.883789
5130.154526	0.085635	0.120247	14415.095703
5130.155457	0.085620	0.120247	14494.807617
5130.156346	0.085668	0.120247	14570.965820
5130.157270	0.085598	0.120247	14650.058594
5130.158221	0.085565	0.120247	14731.430664
5130.159096	0.085675	0.120247	14806.396484
5130.160010	0.085573	0.120247	14884.609375
5131.185086	1.082794	0.129403	459.104736
5131.186048	1.614368	0.129403	2012.126343
5131.186965	1.607534	0.129403	3486.235352
5131.187890	1.564801	0.129403	4933.676270
5131.188771	1.523397	0.129403	6275.789062
5131.189713	1.479756	0.129403	7669.719238
5131.190679	1.439004	0.129403	9059.796875
5131.191601	1.401112	0.129403	10351.622070
5131.192472	1.365795	0.129403	11541.229492
5131.193444	1.328943	0.129403	12832.961914
5131.194390	1.238031	0.129403	14004.138672
5131.195288	0.245764	0.129403	14224.834961
5131.196209	0.085715	0.129403	14303.778320
5131.197134	0.085690	0.129403	14383.041016
5131.198028	0.085605	0.129403	14459.572266
5131.198899	0.085649	0.129403	14534.172852
5131.199917	0.085638	0.129403	14621.352539
5131.200837	0.085660	0.129403	14700.160156
5131.201725	0.085653	0.129403	14776.219727
5131.202634	0.085580	0.129403	14854.011719
5131.203558	0.085594	0.129403	14933.100586
5132.217287	1.096659	0.131719	474.853333
5132.218152	1.613408	0.131719	1870.451416
5132.219227	1.605571	0.131719	3596.440430
5132.220107	1.563765	0.131719	4972.553223
5132.220979	1.522745	0.131719	6300.387207
5132.221895	1.480745	0.131719	7656.749023
5132.222912	1.437290	0.131719	9118.472656
5132.223803	1.400369	0.131719	10366.201172
5132.224683	1.365769	0.131719	11568.078125
5132.225670	1.327830	0.131719	12878.646484
5132.226600	1.213982	0.131719	14007.649414
5132.227521	0.213724	0.131719	14204.489258
5132.228387	0.085657	0.131719	14278.667969
5132.229440	0.085638	0.131719	14368.845703
5132.230322	0.085627	0.131719	14444.369141
5132.231186	0.085675	0.131719	14518.392578
5132.232141	0.085573	0.131719	14600.114258
5132.233087	0.085693	0.131719	14681.179687
5132.233999	0.085569	0.131719	14759.218750
5132.234876	0.085708	0.131719	14834.384766
5132.235894	0.085609	0.131719	14921.535156
5133.260234	1.102412	0.135353	479.549255
5133.261098	1.613588	0.135353	1873.688965
5133.262165	1.604429	0.135353	3585.614502
5133.263094	1.560908	0.135353	5035.698242
5133.263976	1.520248	0.135353	6376.556641
5133.264950	1.476632	0.135353	7814.796387
5133.265972	1.432562	0.135353	9278.875000
5133.266864	1.395710	0.135353	10523.848633
5133.267733	1.360426	0.135353	11706.058594
5133.268821	1.319575	0.135353	13141.755859
5133.269756	1.036073	0.135353	14110.484375
5133.270634	0.136296	0.135353	14230.152344
5133.271616	0.085609	0.135353	14314.220703
5133.272623	0.085521	0.135353	14400.340820
5133.273501	0.085613	0.135353	14475.508789
5133.274356	0.085591	0.135353	14548.688477
5133.275431	0.085657	0.135353	14640.769531
5133.276351	0.085558	0.135353	14719.482422
5133.277220	0.085587	0.135353	14793.857422
5133.278169	0.085565	0.135353	14875.058594
5133.279203	0.085547	0.135353	14963.513672
5134.290365	1.086112	0.128489	461.597595
5134.291414	1.620191	0.128489	2161.177490
5134.292448	1.598921	0.128489	3814.461914
5134.293324	1.557107	0.128489	5178.487793
5134.294276	1.513359	0.128489	6619.206055
5134.295334	1.465554	0.128489	8169.762695
5134.296264	1.425985	0.128489	9495.928711
5134.297134	1.390162	0.128489	10705.370117
5134.298163	1.350256	0.128489	12094.784180
5134.299177	1.311218	0.128489	13424.359375
5134.300077	0.831954	0.128489	14173.118164
5134.301027	0.101594	0.128489	14269.632812
5134.302075	0.085668	0.128489	14359.412109
5134.303001	0.085664	0.128489	14438.737305
5134.303867	0.085635	0.128489	14512.897461
5134.304947	0.085682	0.128489	14605.434570
5134.305941	0.085620	0.128489	14690.541016
5134.306831	0.085584	0.128489	14766.709961
5134.307822	0.085701	0.128489	14851.639648
5134.308856	0.085653	0.128489	14940.205078
5134.309761	0.085682	0.128489	15017.748047
5135.334454	1.215571	0.126720	668.564209
5135.335518	1.624259	0.126720	2396.775879
5135.336415	1.598163	0.126720	3830.328125
5135.337302	1.554855	0.126720	5209.484375
5135.338413	1.504889	0.126720	6881.416016
5135.339371	1.462427	0.126720	8282.420898
5135.340242	1.425531	0.126720	9524.058594
5135.341257	1.383999	0.126720	10928.817383
5135.342299	1.343514	0.126720	12328.759766
5135.343197	1.308849	0.126720	13504.106445
5135.344146	0.709230	0.126720	14177.165039
5135.345204	0.088261	0.126720	14270.544922
5135.346149	0.085547	0.126720	14351.386719
5135.347013	0.085562	0.126720	14425.311523
5135.348061	0.085580	0.126720	14514.999023
5135.349068	0.085488	0.126720	14601.085937
5135.349948	0.085576	0.126720	14676.392578
5135.350911	0.085602	0.126720	14758.827148
5135.351959	0.085715	0.126720	14848.657227
5135.352881	0.085649	0.126720	14927.625977
5135.353737	0.085690	0.126720	15000.976562
5136.366005	1.086984	0.134741	455.446167
5136.366987	1.618418	0.134741	2044.732666
5136.367919	1.606238	0.134741	3541.746094
5136.368806	1.564966	0.134741	4929.871094
5136.369727	1.522980	0.134741	6332.535156
5136.370664	1.479664	0.134741	7718.980469
5136.371555	1.440619	0.134741	9002.572266
5136.372443	1.403174	0.134741	10248.590820
5136.373403	1.365461	0.134741	11559.433594
5136.374352	1.328881	0.134741	12820.541016
5136.375250	1.277974	0.134741	13968.161133
5136.376168	0.289929	0.134741	14234.316406
5136.377131	0.085693	0.134741	14316.838867
5136.378048	0.085649	0.134741	14395.378906
5136.378913	0.085609	0.134741	14469.430664
5136.379870	0.085594	0.134741	14551.344727
5136.380776	0.085565	0.134741	14628.867187
5136.381677	0.085708	0.134741	14706.089844
5136.382556	0.085547	0.134741	14781.285156
5136.383521	0.085627	0.134741	14863.916016
5136.384467	0.085605	0.134741	14944.898437
5137.409030	1.183455	0.140541	578.709229
5137.409924	1.619300	0.140541	2026.363892
5137.410850	1.607355	0.140541	3514.774414
5137.411712	1.565431	0.140541	4864.175781
5137.412690	1.520958	0.140541	6351.672852
5137.413608	1.479221	0.140541	7709.597656
5137.414500	1.441168	0.140541	8995.119141
5137.415445	1.402980	0.140541	10320.934570
5137.416390	1.365330	0.140541	11611.170898
5137.417316	1.328434	0.140541	12841.300781
5137.418210	1.273645	0.140541	13979.939453
5137.419145	0.262950	0.140541	14225.797852
5137.420105	0.085708	0.140541	14308.077148
5137.421038	0.085726	0.140541	14388.059570
5137.421903	0.085657	0.140541	14462.152344
5137.422854	0.085701	0.140541	14543.653320
5137.423814	0.085624	0.140541	14625.852539
5137.424703	0.085631	0.140541	14701.978516
5137.425591	0.085649	0.140541	14778.035156
5137.426539	0.085627	0.140541	14859.209961
5137.427482	0.085602	0.140541	14939.932617
5138.439622	1.102903	0.126615	480.865601
5138.440499	1.615045	0.126615	1897.260254
5138.441460	1.609160	0.126615	3443.663086
5138.442423	1.564354	0.126615	4950.136230
5138.443345	1.521416	0.126615	6352.881836
5138.444215	1.481499	0.126615	7641.786133
5138.445251	1.437953	0.126615	9131.505859
5138.446136	1.400779	0.126615	10371.195312
5138.447015	1.365886	0.126615	11571.809570
5138.447918	1.329895	0.126615	12772.705078
5138.448946	1.212155	0.126615	14018.799805
5138.449832	0.220382	0.126615	14214.058594
5138.450709	0.085642	0.126615	14289.166992
5138.451702	0.085675	0.126615	14374.242187
5138.452626	0.085664	0.126615	14453.395508
5138.453547	0.085649	0.126615	14532.278320
5138.454413	0.085551	0.126615	14606.365234
5138.455452	0.085638	0.126615	14695.343750
5138.456345	0.085591	0.126615	14771.776367
5138.457219	0.085573	0.126615	14846.566406
5138.458200	0.085635	0.126615	14930.574219
5139.484094	1.084197	0.141432	461.867828
5139.485137	1.620029	0.141432	2151.558350
5139.486012	1.605494	0.141432	3556.365967
5139.486897	1.564277	0.141432	4940.751465
5139.487799	1.521039	0.141432	6312.728516
5139.488846	1.474618	0.141432	7856.653320
5139.489746	1.436118	0.141432	9149.160156
5139.490628	1.400050	0.141432	10384.003906
5139.491629	1.361213	0.141432	11746.578125
5139.492570	1.323292	0.141432	12991.795898
5139.493502	1.164137	0.141432	14076.771484
5139.494372	0.187961	0.141432	14240.297852
5139.495410	0.085397	0.141432	14328.939453
5139.496291	0.085525	0.141432	14404.287109
5139.497155	0.085679	0.141432	14478.313477
5139.498145	0.085624	0.141432	14563.081055
5139.499070	0.085598	0.141432	14642.259766
5139.499987	0.085554	0.141432	14720.712891
5139.500863	0.085573	0.141432	14795.674805
5139.501891	0.085558	0.141432	14883.627930
5139.502790	0.085554	0.141432	14960.541016
5140.514826	1.159270	0.134298	581.953552
5140.515733	1.621022	0.134298	2052.220215
5140.516596	1.607487	0.134298	3439.481201
5140.517680	1.558114	0.134298	5128.476562
5140.518684	1.511733	0.134298	6646.256836
5140.519579	1.471498	0.134298	7963.247070
5140.520443	1.433236	0.134298	9201.562500
5140.521544	1.390052	0.134298	10732.009766
5140.522449	1.353900	0.134298	11957.289062
5140.523319	1.320055	0.134298	13105.737305
5140.524338	0.955668	0.134298	14079.562500
5140.525334	0.104465	0.134298	14183.610352
5140.526224	0.085576	0.134298	14259.773437
5140.527082	0.085642	0.134298	14333.253906
5140.528133	0.085627	0.134298	14423.248047
5140.529053	0.085540	0.134298	14501.944336
5140.529930	0.085584	0.134298	14577.000977
5140.530898	0.085701	0.134298	14659.958984
5140.531911	0.085584	0.134298	14746.655273
5140.532800	0.085642	0.134298	14822.791016
5140.533660	0.085591	0.134298	14896.399414
5141.558291	1.159340	0.136453	591.263184
5141.559161	1.619557	0.136453	2000.277710
5141.560053	1.606824	0.136453	3433.564453
5141.561149	1.557392	0.136453	5140.466797
5141.562114	1.513286	0.136453	6600.788086
5141.562985	1.473472	0.136453	7884.181641
5141.564021	1.429435	0.136453	9365.076172
5141.565051	1.387339	0.136453	10794.035156
5141.565951	1.352102	0.136453	12010.926758
5141.566906	1.315748	0.136453	13267.466797
5141.567964	0.761224	0.136453	14072.841797
5141.568899	0.092721	0.136453	14159.536133
5141.569761	0.085598	0.136453	14233.321289
5141.570837	0.085649	0.136453	14325.480469
5141.571836	0.085627	0.136453	14411.022461
5141.572727	0.085638	0.136453	14487.326172
5141.573718	0.085675	0.136453	14572.230469
5141.574742	0.085624	0.136453	14659.909180
5141.575644	0.085616	0.136453	14737.134766
5141.576499	0.085675	0.136453	14810.386719
5141.577572	0.085704	0.136453	14902.347656
5142.589441	1.169191	0.139337	578.749390
5142.590375	1.620612	0.139337	2092.400635
5142.591282	1.605868	0.139337	3548.922852
5142.592162	1.564263	0.139337	4925.474121
5142.593126	1.520083	0.139337	6390.833984
5142.594069	1.477427	0.139337	7784.047363
5142.594969	1.438689	0.139337	9078.867187
5142.595889	1.401332	0.139337	10368.092773
5142.596838	1.363004	0.139337	11661.583984
5142.597757	1.327419	0.139337	12881.482422
5142.598622	1.247758	0.139337	13960.792969
5142.599597	0.235247	0.139337	14190.158203
5142.600547	0.085587	0.139337	14271.465820
5142.601420	0.085624	0.139337	14346.215820
5142.602328	0.085613	0.139337	14423.952148
5142.603287	0.085642	0.139337	14506.083008
5142.604214	0.085573	0.139337	14585.409180
5142.605085	0.085642	0.139337	14660.003906
5142.606010	0.085543	0.139337	14739.131836
5142.606972	0.085584	0.139337	14821.462891
5142.607892	0.085627	0.139337	14900.240234
5143.633358	1.109960	0.137407	485.052399
5143.634235	1.615338	0.137407	1901.703857
5143.635156	1.610581	0.137407	3385.048828
5143.636092	1.566830	0.137407	4851.601562
5143.637022	1.523016	0.137407	6268.006836
5143.637921	1.482407	0.137407	7600.690918
5143.638835	1.442662	0.137407	8919.284180
5143.639789	1.403405	0.137407	10258.131836
5143.640715	1.367062	0.137407	11524.031250
5143.641586	1.332528	0.137407	12684.663086
5143.642555	1.277750	0.137407	13922.802734
5143.643478	0.293566	0.137407	14193.763672
5143.644357	0.085898	0.137407	14269.268555
5143.645276	0.085547	0.137407	14347.885742
5143.646232	0.085573	0.137407	14429.693359
5143.647160	0.085540	0.137407	14509.074219
5143.648019	0.085573	0.137407	14582.581055
5143.648987	0.085543	0.137407	14665.386719
5143.649934	0.085598	0.137407	14746.448242
5143.650823	0.085591	0.137407	14822.538086
5143.651731	0.085642	0.137407	14900.300781
5144.665558	1.103379	0.147998	492.106995
5144.666462	1.617089	0.147998	1953.955078
5144.667346	1.610215	0.147998	3377.385010
5144.668309	1.564900	0.147998	4884.383789
5144.669238	1.522225	0.147998	6298.531250
5144.670124	1.482290	0.147998	7611.840332
5144.671115	1.440428	0.147998	9039.304687
5144.672043	1.400673	0.147998	10339.128906
5144.672970	1.364319	0.147998	11603.852539
5144.673851	1.330206	0.147998	12775.764648
5144.674809	1.248768	0.147998	13972.084961
5144.675738	0.253568	0.147998	14207.649414
5144.676605	0.085759	0.147998	14282.002930
5144.677493	0.085664	0.147998	14358.072266
5144.678485	0.085594	0.147998	14442.982422
5144.679417	0.085529	0.147998	14522.695312
5144.680306	0.085664	0.147998	14598.850586
5144.681252	0.085573	0.147998	14679.801758
5144.682169	0.085573	0.147998	14758.271484
5144.683095	0.085616	0.147998	14837.552734
5144.683957	0.085679	0.147998	14911.408203
5145.707066	1.181708	0.135224	652.302673
5145.708082	1.624479	0.135224	2302.772949
5145.708966	1.600869	0.135224	3717.941406
5145.709832	1.559073	0.135224	5068.099121
5145.710911	1.510854	0.135224	6698.311035
5145.711825	1.468623	0.135224	8040.632324
5145.712708	1.431372	0.135224	9304.534180
5145.713678	1.391961	0.135224	10654.736328
5145.714702	1.351370	0.135224	12038.539062
5145.715601	1.316887	0.135224	13222.420898
5145.716472	1.007677	0.135224	14100.107422
5145.717547	0.105223	0.135224	14213.222656
5145.718484	0.085532	0.135224	14293.366211
5145.719360	0.085642	0.135224	14368.388672
5145.720319	0.085723	0.135224	14450.596680
5145.721325	0.085605	0.135224	14536.715820
5145.722211	0.085690	0.135224	14612.636719
5145.723070	0.085602	0.135224	14686.168945
5145.724111	0.085748	0.135224	14775.432617
5145.725052	0.085565	0.135224	14855.949219
5145.725918	0.085734	0.135224	14930.194336
5146.738121	1.107546	0.140545	481.782715
5146.738998	1.614653	0.140545	1897.833740
5146.739999	1.606436	0.140545	3505.875732
5146.741077	1.557913	0.140545	5185.305664
5146.741956	1.515692	0.140545	6517.599121
5146.742853	1.473973	0.140545	7839.753418
5146.743949	1.428285	0.140545	9405.153320
5146.744911	1.389177	0.140545	10741.541992
5146.745788	1.354636	0.140545	11929.557617
5146.746822	1.314708	0.140545	13288.965820
5146.747856	0.777502	0.140545	14092.903320
5146.748743	0.096152	0.140545	14178.190430
5146.749686	0.085671	0.140545	14258.978516
5146.750758	0.085635	0.140545	14350.779297
5146.751692	0.085660	0.140545	14430.786133
5146.752553	0.085657	0.140545	14504.536133
5146.753622	0.085701	0.140545	14596.150391
5146.754621	0.085638	0.140545	14681.703125
5146.755517	0.085613	0.140545	14758.412109
5146.756473	0.085664	0.140545	14840.306641
5146.757516	0.085679	0.140545	14929.669922
5147.782070	1.092997	0.134386	460.151672
5147.783026	1.617861	0.134386	2006.827148
5147.783958	1.606853	0.134386	3504.414062
5147.784845	1.565837	0.134386	4893.311523
5147.785760	1.523152	0.134386	6286.995605
5147.786714	1.480020	0.134386	7698.934570
5147.787634	1.440465	0.134386	9024.162109
5147.788505	1.403954	0.134386	10247.005859
5147.789480	1.366135	0.134386	11578.987305
5147.790432	1.329104	0.134386	12844.294922
5147.791325	1.273220	0.134386	13981.280273
5147.792213	0.297979	0.134386	14245.884766
5147.793137	0.085807	0.134386	14325.169922
5147.794082	0.085638	0.134386	14406.098633
5147.794976	0.085657	0.134386	14482.675781
5147.795889	0.085657	0.134386	14560.880859
5147.796847	0.085620	0.134386	14642.905273
5147.797763	0.085635	0.134386	14721.346680
5147.798631	0.085605	0.134386	14795.652344
5147.799678	0.085668	0.134386	14885.346680
5147.800713	0.085712	0.134386	14974.058594
5148.814341	1.167429	0.141980	572.040283
5148.815216	1.618711	0.141980	1988.412354
5148.816168	1.606124	0.141980	3517.442383
5148.817238	1.556638	0.141980	5183.044922
5148.818169	1.513425	0.141980	6592.043945
5148.819038	1.473417	0.141980	7872.442871
5148.820098	1.428812	0.141980	9386.983398
5148.821108	1.387269	0.141980	10788.125000
5148.822003	1.352589	0.141980	11998.692383
5148.822970	1.315609	0.141980	13270.886719
5148.824024	0.773141	0.141980	14085.777344
5148.824942	0.094164	0.141980	14172.219727
5148.825804	0.085613	0.141980	14246.017578
5148.826899	0.085748	0.141980	14339.912109
5148.827885	0.085613	0.141980	14424.326172
5148.828774	0.085624	0.141980	14500.445312
5148.829764	0.085726	0.141980	14585.314453
5148.830792	0.085690	0.141980	14673.403320
5148.831689	0.085690	0.141980	14750.266602
5148.832548	0.085726	0.141980	14823.905273
5148.833662	0.085748	0.141980	14919.428711
5149.857733	1.095139	0.147825	469.814697
5149.858667	1.617543	0.147825	1980.599609
5149.859615	1.606421	0.147825	3503.486572
5149.860536	1.564171	0.147825	4944.087891
5149.861401	1.523053	0.147825	6261.528809
5149.862353	1.479781	0.147825	7670.280762
5149.863311	1.438978	0.147825	9048.822266
5149.864211	1.401779	0.147825	10310.422852
5149.865130	1.365985	0.147825	11565.763672
5149.866083	1.328921	0.147825	12832.225586
5149.867015	1.252500	0.147825	13999.555664
5149.867902	0.257820	0.147825	14228.242187
5149.868834	0.085584	0.147825	14308.005859
5149.869785	0.085646	0.147825	14389.455078
5149.870710	0.085664	0.147825	14468.694336
5149.871573	0.085609	0.147825	14542.575195
5149.872533	0.085653	0.147825	14624.801758
5149.873443	0.085591	0.147825	14702.689453
5149.874320	0.085635	0.147825	14777.791016
5149.875232	0.085598	0.147825	14855.856445
5149.876176	0.085624	0.147825	14936.685547
5150.888451	1.152510	0.147313	557.814758
5150.889334	1.618363	0.147313	1986.829346
5150.890213	1.609413	0.147313	3401.503418
5150.891133	1.567072	0.147313	4843.208984
5150.892089	1.522694	0.147313	6298.904297
5150.893012	1.480715	0.147313	7665.604492
5150.893891	1.442399	0.147313	8933.472656
5150.894833	1.403225	0.147313	10255.310547
5150.895773	1.365656	0.147313	11539.026367
5150.896705	1.330049	0.147313	12778.631836
5150.897570	1.282907	0.147313	13888.345703
5150.898542	0.301219	0.147313	14181.130859
5150.899470	0.085712	0.147313	14260.670898
5150.900358	0.085624	0.147313	14336.705078
5150.901268	0.085646	0.147313	14414.642578
5150.902225	0.085638	0.147313	14496.598633
5150.903158	0.085631	0.147313	14576.492187
5150.904032	0.085591	0.147313	14651.298828
5150.905008	0.085701	0.147313	14734.942383
5150.905961	0.085704	0.147313	14816.618164
5150.906888	0.085726	0.147313	14896.086914
5151.932376	1.096549	0.140413	473.709167
5151.933256	1.614767	0.140413	1894.704102
5151.934206	1.608186	0.140413	3422.480957
5151.935142	1.564768	0.140413	4887.103516
5151.936069	1.522145	0.140413	6298.131836
5151.936940	1.481488	0.140413	7588.507812
5151.937939	1.439542	0.140413	9026.610352
5151.938870	1.401325	0.140413	10331.243164
5151.939739	1.366047	0.140413	11518.337891
5151.940775	1.326676	0.140413	12892.774414
5151.941659	1.233340	0.140413	13983.046875
5151.942567	0.238004	0.140413	14199.154297
5151.943441	0.085686	0.140413	14274.043945
5151.944412	0.085551	0.140413	14357.113281
5151.945330	0.085594	0.140413	14435.689453
5151.946213	0.085616	0.140413	14511.289062
5151.947119	0.085591	0.140413	14588.833984
5151.948075	0.085598	0.140413	14670.666016
5151.949004	0.085547	0.140413	14750.138672
5151.949869	0.085613	0.140413	14824.193359
5151.950882	0.085616	0.140413	14910.922852
5152.964081	1.154854	0.143845	535.852051
5152.964958	1.616909	0.143845	1953.881348
5152.965819	1.609570	0.143845	3339.721436
5152.966929	1.560604	0.143845	5071.992187
5152.967836	1.517684	0.143845	6448.531738
5152.968708	1.478225	0.143845	7737.543945
5152.969702	1.436495	0.143845	9165.419922
5152.970721	1.394052	0.143845	10585.958984
5152.971597	1.358738	0.143845	11776.212891
5152.972477	1.324926	0.143845	12942.147461
5152.973468	1.095894	0.143845	14028.177734
5152.974415	0.148455	0.143845	14168.764648
5152.975293	0.085547	0.143845	14243.875000
5152.976263	0.085598	0.143845	14326.905273
5152.977281	0.085554	0.143845	14413.999023
5152.978171	0.085693	0.143845	14490.265625
5152.979053	0.085642	0.143845	14565.801758
5152.980004	0.085668	0.143845	14647.271484
5152.980968	0.085624	0.143845	14729.812500
5152.981891	0.085547	0.143845	14808.772461
5152.982748	0.085602	0.143845	14882.132812
5154.007053	1.163514	0.147301	586.411255
5154.007936	1.619630	0.147301	2016.544678
5154.008844	1.606373	0.147301	3475.131592
5154.009944	1.556689	0.147301	5187.489746
5154.010880	1.513085	0.147301	6603.737305
5154.011742	1.473596	0.147301	7873.977539
5154.012771	1.429680	0.147301	9345.118164
5154.013809	1.387321	0.147301	10785.157227
5154.014711	1.352281	0.147301	12004.915039
5154.015671	1.315825	0.147301	13268.107422
5154.016731	0.760327	0.147301	14074.054687
5154.017657	0.093329	0.147301	14160.477539
5154.018520	0.085580	0.147301	14234.333008
5154.019585	0.085671	0.147301	14325.573242
5154.020583	0.085558	0.147301	14410.959961
5154.021478	0.085653	0.147301	14487.619141
5154.022442	0.085701	0.147301	14570.234375
5154.023484	0.085701	0.147301	14659.534180
5154.024400	0.085734	0.147301	14738.066406
5154.025260	0.085649	0.147301	14811.724609
5154.026344	0.085803	0.147301	14904.735352
