time (s)	coil I (A)	last det (V)	int current (uC)
5873.917905	1.114475	0.095718	474.766418
5873.918904	1.623834	0.095718	2096.976807
5873.919840	1.608655	0.095718	3602.677734
5873.920766	1.565402	0.095718	5052.239746
5873.921637	1.523954	0.095718	6379.603516
5873.922625	0.968701	0.095718	7336.680176
5873.923580	0.103975	0.095718	7435.976074
5873.924450	0.085463	0.095718	7510.328613
5873.925361	0.085609	0.095718	7588.318359
5873.926320	0.085605	0.095718	7670.414062
5873.927241	0.085580	0.095718	7749.232910
5873.928115	0.085642	0.095718	7824.083984
5873.929039	0.085551	0.095718	7903.132812
5873.929996	0.085525	0.095718	7984.979980
5873.930918	0.085657	0.095718	8063.955566
5873.931782	0.085605	0.095718	8137.918457
5874.947521	1.093795	0.095420	464.862946
5874.948495	1.620604	0.095420	2043.331421
5874.949405	1.611237	0.095420	3509.556641
5874.950330	1.568467	0.095420	4960.388672
5874.951210	1.526843	0.095420	6304.010742
5874.952176	1.045935	0.095420	7314.383789
5874.953100	0.110226	0.095420	7416.232422
5874.953977	0.085532	0.095420	7491.244141
5874.955006	0.085627	0.095420	7579.354980
5874.955915	0.085620	0.095420	7657.183594
5874.956833	0.085540	0.095420	7735.708984
5874.957696	0.085518	0.095420	7809.510742
5874.958673	0.085638	0.095420	7893.179687
5874.959591	0.085635	0.095420	7971.792480
5874.960486	0.085587	0.095420	8048.393066
5874.961360	0.085646	0.095420	8123.247559
5875.992512	1.091001	0.097938	466.948395
5875.993376	1.617363	0.097938	1864.350220
5875.994445	1.609098	0.097938	3584.476074
5875.995393	1.564999	0.097938	5068.094727
5875.996273	1.523870	0.097938	6409.100098
5875.997210	0.970382	0.097938	7318.348145
5875.998255	0.095669	0.097938	7418.322266
5875.999138	0.085499	0.097938	7493.818359
5876.000000	0.085598	0.097938	7567.604004
5876.001055	0.085605	0.097938	7657.917969
5876.001996	0.085613	0.097938	7738.479492
5876.002866	0.085558	0.097938	7812.915039
5876.003782	0.085635	0.097938	7891.356445
5876.004855	0.085594	0.097938	7983.199219
5876.005735	0.085569	0.097938	8058.500000
5876.006600	0.085627	0.097938	8132.567871
5877.022157	1.110560	0.095960	486.425415
5877.023021	1.617891	0.095960	1884.282837
5877.024128	1.607541	0.095960	3663.831055
5877.025097	1.561696	0.095960	5177.114258
5877.025971	1.520896	0.095960	6506.377441
5877.026975	0.797282	0.095960	7306.848145
5877.028030	0.089956	0.095960	7401.751953
5877.028909	0.085554	0.095960	7476.954102
5877.029787	0.085551	0.095960	7552.067383
5877.030886	0.085664	0.095960	7646.212402
5877.031850	0.085657	0.095960	7728.785645
5877.032720	0.085591	0.095960	7803.249512
5877.033738	0.085723	0.095960	7890.515137
5877.034769	0.085605	0.095960	7978.774414
5877.035659	0.085627	0.095960	8054.982910
5877.036586	0.085605	0.095960	8134.339355
5878.066732	1.184605	0.089785	637.317261
5878.067796	1.628544	0.089785	2370.087891
5878.068720	1.602096	0.089785	3850.424561
5878.069589	1.559125	0.089785	5205.303711
5878.070694	1.508939	0.089785	6872.681641
5878.071681	0.441145	0.089785	7308.091797
5878.072549	0.087231	0.089785	7383.808594
5878.073621	0.085690	0.089785	7475.667969
5878.074662	0.085573	0.089785	7564.749023
5878.075547	0.085620	0.089785	7640.522949
5878.076460	0.085646	0.089785	7718.717285
5878.077513	0.085646	0.089785	7808.902344
5878.078462	0.085507	0.089785	7890.047852
5878.079324	0.085598	0.089785	7963.833496
5878.080363	0.085730	0.089785	8052.906738
5879.096872	1.204867	0.091859	628.940491
5879.097911	1.628654	0.091859	2321.111572
5879.098804	1.605139	0.091859	3754.500977
5879.099737	1.560890	0.091859	5210.811523
5879.100805	1.511334	0.091859	6824.916504
5879.101759	0.540326	0.091859	7340.387695
5879.102625	0.088575	0.091859	7417.094238
5879.103685	0.085638	0.091859	7507.871094
5879.104692	0.085543	0.091859	7594.013184
5879.105578	0.085646	0.091859	7669.895508
5879.106537	0.085642	0.091859	7752.026367
5879.107587	0.085631	0.091859	7841.938965
5879.108503	0.085587	0.091859	7920.336914
5879.109363	0.085584	0.091859	7993.938965
5879.110435	0.085675	0.091859	8085.782715
5879.111430	0.085620	0.091859	8170.974609
5880.141247	1.089987	0.095050	464.334290
5880.142165	1.618378	0.095050	1950.004883
5880.143115	1.612137	0.095050	3481.535400
5880.144042	1.569302	0.095050	4936.278320
5880.144920	1.527755	0.095050	6277.647461
5880.145884	1.076777	0.095050	7315.660645
5880.146802	0.112965	0.095050	7419.362793
5880.147724	0.085477	0.095050	7498.172852
5880.148589	0.085613	0.095050	7572.228027
5880.149547	0.085576	0.095050	7654.209961
5880.150498	0.085565	0.095050	7735.582520
5880.151371	0.085598	0.095050	7810.309570
5880.152282	0.085576	0.095050	7888.269531
5880.153234	0.085547	0.095050	7969.709961
5880.154156	0.085573	0.095050	8048.607910
5880.155029	0.085598	0.095050	8123.334961
5881.170871	1.088500	0.097656	456.081360
5881.171863	1.622791	0.097656	2065.889648
5881.172822	1.609794	0.097656	3609.681641
5881.173716	1.566954	0.097656	5010.538574
5881.174607	1.525400	0.097656	6369.669922
5881.175568	0.965460	0.097656	7297.477051
5881.176531	0.102850	0.097656	7396.521973
5881.177409	0.085492	0.097656	7471.583984
5881.178322	0.085580	0.097656	7549.718262
5881.179253	0.085529	0.097656	7629.345215
5881.180179	0.085602	0.097656	7708.612305
5881.181053	0.085547	0.097656	7783.380371
5881.181992	0.085532	0.097656	7863.695312
5881.182914	0.085587	0.097656	7942.606445
5881.183835	0.085565	0.097656	8021.412109
5881.184701	0.085532	0.097656	8095.482910
5882.215883	1.118694	0.096415	486.631866
5882.216812	1.622000	0.096415	1993.469360
5882.217681	1.613591	0.096415	3395.680176
5882.218668	1.568936	0.096415	4944.219727
5882.219615	1.525247	0.096415	6388.627930
5882.220502	1.087624	0.096415	7353.350586
5882.221411	0.124688	0.096415	7466.691406
5882.222349	0.085510	0.096415	7546.899902
5882.223273	0.085631	0.096415	7626.022949
5882.224148	0.085635	0.096415	7700.953125
5882.225090	0.085576	0.096415	7781.565918
5882.226022	0.085558	0.096415	7861.305664
5882.226906	0.085565	0.096415	7936.945312
5882.227965	0.085565	0.096415	8027.559082
5882.228920	0.085605	0.096415	8109.312500
5882.229850	0.085616	0.096415	8188.936035
5883.245019	1.098219	0.092846	498.591400
5883.245914	1.621461	0.092846	1949.799194
5883.246813	1.613064	0.092846	3399.943848
5883.247831	1.566735	0.092846	4994.879883
5883.248753	1.523503	0.092846	6399.549805
5883.249676	1.020260	0.092846	7341.250000
5883.250534	0.116041	0.092846	7440.813477
5883.251503	0.085540	0.092846	7523.701172
5883.252435	0.085646	0.092846	7603.522949
5883.253309	0.085668	0.092846	7678.396484
5883.254313	0.085631	0.092846	7764.370117
5883.255203	0.085605	0.092846	7840.559082
5883.256120	0.085562	0.092846	7919.019043
5883.256987	0.085638	0.092846	7993.267578
5883.257979	0.085624	0.092846	8078.206543
5883.258898	0.085558	0.092846	8156.833984
5884.291521	1.086497	0.095493	466.107025
5884.292392	1.617858	0.095493	1875.261108
5884.293284	1.615009	0.095493	3315.848633
5884.294320	1.568426	0.095493	4940.738281
5884.295216	1.526477	0.095493	6308.461914
5884.296098	1.151327	0.095493	7323.932129
5884.297114	0.126625	0.095493	7452.583008
5884.298030	0.085518	0.095493	7530.916992
5884.298949	0.085631	0.095493	7609.611816
5884.299809	0.085562	0.095493	7683.194824
5884.300862	0.085609	0.095493	7773.341309
5884.301738	0.085598	0.095493	7848.325195
5884.302609	0.085653	0.095493	7922.929199
5884.303571	0.085631	0.095493	8005.306152
5884.304521	0.085562	0.095493	8086.589844
5884.305434	0.085594	0.095493	8164.737793
5885.320680	1.137913	0.095513	530.267273
5885.321561	1.621622	0.095513	1958.916504
5885.322518	1.611892	0.095513	3501.497070
5885.323573	1.562000	0.095513	5149.406738
5885.324515	1.518472	0.095513	6579.807129
5885.325393	0.887897	0.095513	7359.380371
5885.326476	0.091212	0.095513	7458.163086
5885.327469	0.085532	0.095513	7543.096680
5885.328351	0.085492	0.095513	7618.500488
5885.329210	0.085605	0.095513	7692.035645
5885.330294	0.085562	0.095513	7784.784180
5885.331207	0.085627	0.095513	7862.961914
5885.332079	0.085642	0.095513	7937.641602
5885.333052	0.085679	0.095513	8021.006836
5885.334079	0.085598	0.095513	8108.916016
5885.334951	0.085558	0.095513	8183.522461
5886.365704	1.135895	0.098176	566.811523
5886.366773	1.627394	0.098176	2306.495361
5886.367720	1.602151	0.098176	3823.732178
5886.368586	1.560743	0.098176	5175.335937
5886.369636	1.512411	0.098176	6763.367187
5886.370645	0.507869	0.098176	7275.806641
5886.371531	0.087722	0.098176	7353.528320
5886.372498	0.085562	0.098176	7436.266113
5886.373545	0.085573	0.098176	7525.860352
5886.374453	0.085521	0.098176	7603.513672
5886.375311	0.085576	0.098176	7676.937988
5886.376383	0.085693	0.098176	7768.801270
5886.377384	0.085518	0.098176	7854.404297
5886.378259	0.085532	0.098176	7929.245117
5886.379240	0.085613	0.098176	8013.231445
5886.380287	0.085499	0.098176	8102.749023
5887.395318	1.127655	0.093410	534.508484
5887.396251	1.622944	0.093410	2048.715576
5887.397130	1.612456	0.093410	3466.064453
5887.398019	1.570327	0.093410	4862.085449
5887.398961	1.525704	0.093410	6299.298828
5887.399925	1.022424	0.093410	7284.916016
5887.400823	0.111621	0.093410	7385.151855
5887.401738	0.085540	0.093410	7463.420410
5887.402701	0.085573	0.093410	7545.826660
5887.403618	0.085576	0.093410	7624.299805
5887.404482	0.085594	0.093410	7698.253418
5887.405451	0.085547	0.093410	7781.148437
5887.406393	0.085573	0.093410	7861.757812
5887.407292	0.085562	0.093410	7938.677734
5887.408150	0.085540	0.093410	8012.070801
5887.409098	0.085543	0.093410	8093.165527
5888.439286	1.137612	0.096991	539.228271
5888.440164	1.622208	0.096991	1963.527100
5888.441086	1.612529	0.096991	3450.279053
5888.442060	1.567397	0.096991	4976.924316
5888.442993	1.523489	0.096991	6398.339355
5888.443879	1.059987	0.096991	7337.487305
5888.444806	0.108706	0.096991	7438.257812
5888.445760	0.085536	0.096991	7519.858887
5888.446684	0.085569	0.096991	7598.924316
5888.447544	0.085635	0.096991	7672.570312
5888.448501	0.085562	0.096991	7754.452637
5888.449454	0.085638	0.096991	7836.065918
5888.450340	0.085602	0.096991	7911.909180
5888.451240	0.085591	0.096991	7988.940918
5888.452169	0.085616	0.096991	8068.478516
5888.453090	0.085613	0.096991	8147.328125
5889.469877	1.082219	0.094542	453.449860
5889.470848	1.621648	0.094542	2028.069946
5889.471767	1.610760	0.094542	3508.358887
5889.472699	1.567983	0.094542	4969.719238
5889.473567	1.526404	0.094542	6294.637695
5889.474544	1.029730	0.094542	7300.684082
5889.475503	0.109314	0.094542	7405.516113
5889.476390	0.085543	0.094542	7481.393066
5889.477280	0.085598	0.094542	7557.575195
5889.478213	0.085657	0.094542	7637.493164
5889.479135	0.085657	0.094542	7716.468750
5889.479996	0.085587	0.094542	7790.159180
5889.480968	0.085609	0.094542	7873.371094
5889.481907	0.085638	0.094542	7953.785645
5889.482798	0.085613	0.094542	8030.066406
5889.483706	0.085580	0.094542	8107.772949
5890.513417	1.144329	0.093511	577.885986
5890.514325	1.624504	0.093511	2052.936035
5890.515246	1.610383	0.093511	3536.099121
5890.516129	1.568646	0.093511	4921.213867
5890.517082	1.523412	0.093511	6373.025391
5890.518045	0.956569	0.093511	7294.201172
5890.518971	0.101854	0.093511	7388.518066
5890.519835	0.085499	0.093511	7462.389648
5890.520803	0.085514	0.093511	7545.166992
5890.521726	0.085540	0.093511	7624.120117
5890.522589	0.085620	0.093511	7698.010254
5890.523607	0.085664	0.093511	7785.216309
5890.524487	0.085510	0.093511	7860.465332
5890.525403	0.085638	0.093511	7938.910156
5890.526280	0.085569	0.093511	8013.954102
5890.527265	0.085565	0.093511	8098.235840
5891.548106	1.099995	0.099058	481.797882
5891.548973	1.618063	0.099058	1884.658203
5891.550009	1.610306	0.099058	3552.935547
5891.550908	1.567976	0.099058	4962.545898
5891.551786	1.526623	0.099058	6302.921387
5891.552738	1.024263	0.099058	7278.019531
5891.553721	0.105677	0.099058	7381.900391
5891.554636	0.085565	0.099058	7460.192383
5891.555493	0.085664	0.099058	7533.606445
5891.556564	0.085638	0.099058	7625.325195
5891.557460	0.085638	0.099058	7702.057129
5891.558329	0.085682	0.099058	7776.515137
5891.559209	0.085616	0.099058	7851.857422
5891.560237	0.085587	0.099058	7939.840820
5891.561129	0.085565	0.099058	8016.165039
5891.562007	0.085591	0.099058	8091.313965
5892.587453	1.087277	0.091650	464.267090
5892.588319	1.616722	0.091650	1864.348755
5892.589357	1.609991	0.091650	3535.520020
5892.590318	1.565409	0.091650	5039.877930
5892.591197	1.524130	0.091650	6379.587891
5892.592099	1.003674	0.091650	7284.902344
5892.593196	0.095826	0.091650	7390.023926
5892.594086	0.085492	0.091650	7466.111816
5892.594946	0.085562	0.091650	7539.694824
5892.595981	0.085686	0.091650	7628.379883
5892.596939	0.085580	0.091650	7710.365234
5892.597808	0.085627	0.091650	7784.775391
5892.598685	0.085671	0.091650	7859.909180
5892.599776	0.085635	0.091650	7953.336914
5892.600649	0.085635	0.091650	8028.096191
5892.601523	0.085536	0.091650	8102.854492
5893.620176	1.105298	0.095485	490.752228
5893.621040	1.618389	0.095485	1889.040039
5893.622077	1.609955	0.095485	3558.563232
5893.623109	1.561908	0.095485	5170.452148
5893.623994	1.519992	0.095485	6515.644531
5893.624940	0.870645	0.095485	7339.274414
5893.625980	0.091721	0.095485	7434.664551
5893.626919	0.085470	0.095485	7514.920898
5893.627776	0.085573	0.095485	7588.256348
5893.628788	0.085693	0.095485	7674.978027
5893.629821	0.085576	0.095485	7763.378418
5893.630708	0.085576	0.095485	7839.284668
5893.631650	0.085598	0.095485	7919.917969
5893.632707	0.085635	0.095485	8010.434082
5893.633656	0.085584	0.095485	8091.652832
5893.634518	0.085657	0.095485	8165.488770
5894.663159	1.160482	0.099408	552.389526
5894.664043	1.621970	0.099408	1986.211182
5894.665045	1.609314	0.099408	3598.743652
5894.666102	1.559700	0.099408	5247.346191
5894.667009	1.516853	0.099408	6623.131836
5894.667878	0.842472	0.099408	7355.240234
5894.668967	0.090575	0.099408	7453.876465
5894.669963	0.085496	0.099408	7539.030273
5894.670835	0.085565	0.099408	7613.643066
5894.671817	0.085741	0.099408	7697.840820
5894.672860	0.085602	0.099408	7787.123535
5894.673761	0.085605	0.099408	7864.253906
5894.674621	0.085558	0.099408	7937.833496
5894.675723	0.085679	0.099408	8032.251465
5894.676700	0.085437	0.099408	8115.723633
5894.677569	0.085565	0.099408	8190.079590
5895.693253	1.097076	0.091078	470.645782
5895.694179	1.617649	0.091078	1968.588745
5895.695140	1.611610	0.091078	3517.345947
5895.696065	1.568276	0.091078	4968.001465
5895.696934	1.527037	0.091078	6294.997070
5895.697899	1.009805	0.091078	7269.458496
5895.698856	0.106670	0.091078	7371.541504
5895.699780	0.085525	0.091078	7450.566406
5895.700660	0.085624	0.091078	7525.915527
5895.701734	0.085591	0.091078	7617.839844
5895.702776	0.085664	0.091078	7707.101562
5895.703675	0.085587	0.091078	7784.044434
5895.704534	0.085638	0.091078	7857.607910
5895.705632	0.085668	0.091078	7951.670898
5895.706600	0.085569	0.091078	8034.501465
5895.707464	0.085565	0.091078	8108.429687
5896.737279	1.161442	0.097728	572.590759
5896.738237	1.624387	0.097728	2128.753662
5896.739161	1.608633	0.097728	3615.130371
5896.740027	1.566896	0.097728	4972.062012
5896.740978	1.522767	0.097728	6420.213867
5896.741952	0.922679	0.097728	7318.903809
5896.742841	0.101334	0.097728	7408.989746
5896.743722	0.085397	0.097728	7484.224121
5896.744667	0.085503	0.097728	7565.024414
5896.745611	0.085514	0.097728	7645.749512
5896.746496	0.085554	0.097728	7721.464844
5896.747410	0.085558	0.097728	7799.664551
5896.748354	0.085591	0.097728	7880.462402
5896.749268	0.085554	0.097728	7958.659180
5896.750127	0.085584	0.097728	8032.175293
5896.751035	0.085569	0.097728	8109.871582
5897.768903	1.098322	0.098453	477.769867
5897.769778	1.618209	0.098453	1893.703003
5897.770757	1.612379	0.098453	3472.222168
5897.771669	1.569694	0.098453	4903.782715
5897.772549	1.528286	0.098453	6248.674805
5897.773424	1.157717	0.098453	7261.677246
5897.774392	0.132191	0.098453	7389.638184
5897.775344	0.085518	0.098453	7471.050781
5897.776223	0.085576	0.098453	7546.272461
5897.777132	0.085605	0.098453	7624.087891
5897.778082	0.085496	0.098453	7705.308594
5897.778977	0.085609	0.098453	7781.928711
5897.779881	0.085576	0.098453	7859.289551
5897.780816	0.085609	0.098453	7939.333984
5897.781756	0.085580	0.098453	8019.778809
5897.782647	0.085624	0.098453	8096.069824
5898.811850	1.092334	0.094083	477.349976
5898.812726	1.618019	0.094083	1894.734375
5898.813684	1.612885	0.094083	3439.877686
5898.814625	1.568533	0.094083	4915.867187
5898.815548	1.525964	0.094083	6324.332031
5898.816420	1.110414	0.094083	7292.612793
5898.817385	0.122311	0.094083	7410.642578
5898.818296	0.085514	0.094083	7488.545898
5898.819173	0.085551	0.094083	7563.573730
5898.820120	0.085631	0.094083	7644.666504
5898.821072	0.085594	0.094083	7726.152344
5898.821962	0.085602	0.094083	7802.337891
5898.822854	0.085532	0.094083	7878.632812
5898.823794	0.085477	0.094083	7958.981445
5898.824735	0.085503	0.094083	8039.439941
5898.825625	0.085569	0.094083	8115.596191
5899.843544	1.115775	0.094381	499.867249
5899.844416	1.619063	0.094381	1911.689697
5899.845282	1.615587	0.094381	3310.788086
5899.846254	1.571700	0.094381	4838.480957
5899.847177	1.527854	0.094381	6248.690430
5899.848068	1.182854	0.094381	7302.613281
5899.848937	0.146847	0.094381	7430.223145
5899.849939	0.085565	0.094381	7515.959473
5899.850888	0.085671	0.094381	7597.261719
5899.851775	0.085616	0.094381	7673.203613
5899.852693	0.085715	0.094381	7751.890137
5899.853659	0.085591	0.094381	7834.570801
5899.854584	0.085598	0.094381	7913.749023
5899.855440	0.085657	0.094381	7987.071289
5899.856397	0.085584	0.094381	8068.974609
5899.857348	0.085605	0.094381	8150.385254
5900.886990	1.105052	0.101555	482.907928
5900.887852	1.617305	0.101555	1877.024536
5900.888897	1.610057	0.101555	3559.534424
5900.889792	1.566848	0.101555	4961.863281
5900.890720	1.524309	0.101555	6376.421875
5900.891590	1.035037	0.101555	7276.903809
5900.892617	0.100734	0.101555	7380.357422
5900.893509	0.085514	0.101555	7456.635742
5900.894423	0.085616	0.101555	7534.889160
5900.895286	0.085558	0.101555	7608.725586
5900.896280	0.085558	0.101555	7693.770020
5900.897202	0.085613	0.101555	7772.705078
5900.898065	0.085624	0.101555	7846.598633
5900.899084	0.085576	0.101555	7933.800781
5900.899968	0.085584	0.101555	8009.456543
5900.900881	0.085569	0.101555	8087.581055
5901.917624	1.100555	0.092294	464.434387
5901.918713	1.625101	0.092294	2234.169678
5901.919612	1.606432	0.092294	3678.352051
5901.920490	1.565288	0.092294	5052.674805
5901.921479	1.519567	0.092294	6555.526367
5901.922495	0.723530	0.092294	7290.633301
5901.923387	0.091941	0.092294	7372.644531
5901.924261	0.085529	0.092294	7447.396484
5901.925243	0.085616	0.092294	7531.471680
5901.926188	0.085543	0.092294	7612.310059
5901.927107	0.085584	0.092294	7690.961426
5901.927971	0.085562	0.092294	7764.886719
5901.928993	0.085562	0.092294	7852.330566
5901.929873	0.085536	0.092294	7927.602051
5901.930737	0.085613	0.092294	8001.571289
5901.931675	0.085624	0.092294	8081.886230
5902.961689	1.180272	0.100254	598.398010
5902.962628	1.626086	0.100254	2125.293213
5902.963506	1.610090	0.100254	3538.952637
5902.964445	1.566302	0.100254	5009.710449
5902.965521	1.516545	0.100254	6641.513184
5902.966427	0.792451	0.100254	7359.474121
5902.967291	0.095837	0.100254	7442.277832
5902.968339	0.085701	0.100254	7532.092285
5902.969287	0.085536	0.100254	7613.180176
5902.970160	0.085620	0.100254	7687.926758
5902.971072	0.085558	0.100254	7765.955566
5902.972138	0.085565	0.100254	7857.167969
5902.973006	0.085525	0.100254	7931.403809
5902.973869	0.085591	0.100254	8005.268555
5902.974873	0.085646	0.100254	8091.256836
5902.975829	0.085624	0.100254	8173.113281
5903.992294	1.144497	0.092822	531.046631
5903.993165	1.620187	0.092822	1942.229370
5903.994177	1.609863	0.092822	3571.411133
5903.995223	1.560831	0.092822	5204.040527
5903.996127	1.518241	0.092822	6576.530273
5903.996997	0.881166	0.092822	7343.144531
5903.998102	0.091556	0.092822	7444.314453
5903.999063	0.085562	0.092822	7526.539062
5903.999932	0.085605	0.092822	7600.930176
5904.000917	0.085536	0.092822	7685.183105
5904.001968	0.085649	0.092822	7775.200684
5904.002857	0.085514	0.092822	7851.222656
5904.003726	0.085587	0.092822	7925.597656
5904.004814	0.085704	0.092822	8018.843750
5904.005779	0.085565	0.092822	8101.414062
5904.006643	0.085569	0.092822	8175.345703
5905.035704	1.082780	0.094969	455.850189
5905.036637	1.617993	0.094969	1965.437744
5905.037587	1.611130	0.094969	3496.011719
5905.038522	1.567815	0.094969	4961.918945
5905.039389	1.526583	0.094969	6285.466797
5905.040370	1.046506	0.094969	7312.089844
5905.041298	0.111079	0.094969	7415.171387
5905.042203	0.085616	0.094969	7492.654297
5905.043074	0.085521	0.094969	7567.143066
5905.044041	0.085605	0.094969	7649.923340
5905.044984	0.085532	0.094969	7730.580078
5905.045873	0.085576	0.094969	7806.657227
5905.046795	0.085642	0.094969	7885.619141
5905.047868	0.085668	0.094969	7977.540527
5905.048864	0.085452	0.094969	8062.650391
5905.049756	0.085551	0.094969	8138.961426
5906.067433	1.123275	0.098611	516.706604
5906.068330	1.620458	0.098611	1970.257324
5906.069269	1.612112	0.098611	3484.030273
5906.070204	1.567731	0.098611	4949.858398
5906.071130	1.524433	0.098611	6361.483887
5906.072013	1.097560	0.098611	7330.629395
5906.072948	0.112075	0.098611	7435.419922
5906.073904	0.085540	0.098611	7517.195801
5906.074821	0.085536	0.098611	7595.632324
5906.075684	0.085562	0.098611	7669.471680
5906.076653	0.085547	0.098611	7752.366699
5906.077597	0.085609	0.098611	7833.181641
5906.078483	0.085576	0.098611	7909.001953
5906.079394	0.085609	0.098611	7986.991699
5906.080305	0.085576	0.098611	8064.951660
5906.081248	0.085580	0.098611	8145.653320
5907.109880	1.140560	0.094602	540.625610
5907.110815	1.623596	0.094602	2058.687988
5907.111699	1.611515	0.094602	3483.267090
5907.112618	1.569016	0.094602	4925.192871
5907.113575	1.524683	0.094602	6384.314453
5907.114514	1.011141	0.094602	7333.776367
5907.115376	0.113467	0.094602	7431.584961
5907.116289	0.085540	0.094602	7509.682617
5907.117229	0.085540	0.094602	7590.089844
5907.118148	0.085551	0.094602	7668.710937
5907.119019	0.085573	0.094602	7743.244629
5907.119992	0.085613	0.094602	7826.545898
5907.120937	0.085543	0.094602	7907.384277
5907.121822	0.085587	0.094602	7983.128906
5907.122687	0.085591	0.094602	8057.165039
5907.123656	0.085554	0.094602	8140.066895
5908.140997	1.100442	0.093257	475.390869
5908.141864	1.616873	0.093257	1877.219360
5908.142847	1.611822	0.093257	3461.640869
5908.143803	1.567789	0.093257	4960.447266
5908.144698	1.525884	0.093257	6326.113281
5908.145634	1.063674	0.093257	7321.712402
5908.146573	0.113339	0.093257	7428.137207
5908.147483	0.085459	0.093257	7505.904785
5908.148371	0.085543	0.093257	7581.867187
5908.149286	0.085562	0.093257	7660.155762
5908.150236	0.085562	0.093257	7741.439453
5908.151157	0.085587	0.093257	7820.265137
5908.152024	0.085565	0.093257	7894.450195
5908.152994	0.085507	0.093257	7977.391602
5908.153919	0.085554	0.093257	8056.529297
5908.154784	0.085598	0.093257	8130.571777
5909.185498	1.116042	0.102083	492.174744
5909.186377	1.618898	0.102083	1915.185791
5909.187251	1.615375	0.102083	3327.023437
5909.188190	1.573250	0.102083	4804.304687
5909.189123	1.528271	0.102083	6230.181641
5909.190063	1.128281	0.102083	7290.766113
5909.190954	0.132078	0.102083	7408.447266
5909.191891	0.085496	0.102083	7488.556641
5909.192838	0.085573	0.102083	7569.593750
5909.193763	0.085605	0.102083	7648.778809
5909.194622	0.085547	0.102083	7722.263672
5909.195577	0.085609	0.102083	7804.020508
5909.196521	0.085536	0.102083	7884.766602
5909.197428	0.085605	0.102083	7962.410645
5909.198296	0.085562	0.102083	8036.678223
5909.199263	0.085510	0.102083	8119.366699
5910.216170	1.125286	0.098470	528.884216
5910.217064	1.621677	0.098470	1978.663818
5910.217931	1.613774	0.098470	3377.806152
5910.218910	1.569697	0.098470	4914.540039
5910.219869	1.525122	0.098470	6377.131836
5910.220766	1.071881	0.098470	7338.609375
5910.221631	0.123754	0.098470	7445.656250
5910.222589	0.085492	0.098470	7527.557617
5910.223529	0.085521	0.098470	7607.947754
5910.224421	0.085646	0.098470	7684.343750
5910.225338	0.085521	0.098470	7762.766602
5910.226284	0.085613	0.098470	7843.756348
5910.227201	0.085554	0.098470	7922.209473
5910.228062	0.085609	0.098470	7995.918945
5910.228997	0.085543	0.098470	8075.901855
5910.229947	0.085602	0.098470	8157.223633
5911.260116	1.120862	0.096206	494.300049
5911.260979	1.617634	0.096206	1890.318481
5911.261954	1.611845	0.096206	3461.866943
5911.262874	1.569485	0.096206	4905.792969
5911.263747	1.527960	0.096206	6239.702148
5911.264706	1.084991	0.096206	7280.208984
5911.265644	0.116752	0.096206	7389.722168
5911.266559	0.085503	0.096206	7467.957520
5911.267437	0.085580	0.096206	7543.096680
5911.268361	0.085580	0.096206	7622.172363
5911.269306	0.085547	0.096206	7703.014160
5911.270231	0.085569	0.096206	7782.165527
5911.271094	0.085587	0.096206	7856.027344
5911.272062	0.085627	0.096206	7938.914551
5911.272985	0.085631	0.096206	8017.952148
5911.273850	0.085573	0.096206	8091.972168
5912.290902	1.211938	0.101229	702.924255
5912.291824	1.627178	0.101229	2203.182129
5912.292733	1.606022	0.101229	3663.055664
5912.293619	1.563724	0.101229	5048.515625
5912.294641	1.516879	0.101229	6598.765625
5912.295551	0.822777	0.101229	7347.492676
5912.296423	0.096786	0.101229	7431.890137
5912.297378	0.085565	0.101229	7513.604980
5912.298350	0.085569	0.101229	7596.777832
5912.299269	0.085573	0.101229	7675.418945
5912.300131	0.085584	0.101229	7749.191895
5912.301166	0.085540	0.101229	7837.725098
5912.302046	0.085492	0.101229	7912.958008
5912.302918	0.085584	0.101229	7987.586914
5912.303793	0.085605	0.101229	8062.491699
5912.304828	0.085594	0.101229	8151.082031
5913.334738	1.123623	0.097104	500.012299
5913.335621	1.619542	0.097104	1930.068115
5913.336484	1.613939	0.097104	3322.897705
5913.337580	1.565563	0.097104	5038.754395
5913.338495	1.522035	0.097104	6431.416504
5913.339382	1.035187	0.097104	7349.626953
5913.340391	0.111368	0.097104	7461.997559
5913.341379	0.085466	0.097104	7546.438477
5913.342258	0.085587	0.097104	7621.669434
5913.343118	0.085584	0.097104	7695.271484
5913.344199	0.085682	0.097104	7787.894043
5913.345107	0.085540	0.097104	7865.563965
5913.345972	0.085646	0.097104	7939.647461
5913.346940	0.085701	0.097104	8022.605957
5913.347954	0.085638	0.097104	8109.443359
5913.348846	0.085605	0.097104	8185.803223
5914.365378	1.088459	0.098027	462.595276
5914.366350	1.617180	0.098027	2034.494385
5914.367401	1.604930	0.098027	3721.276367
5914.368322	1.561245	0.098027	5159.183105
5914.369183	1.520006	0.098027	6467.908203
5914.370270	0.722336	0.098027	7253.087891
5914.371273	0.088422	0.098027	7341.774902
5914.372149	0.085525	0.098027	7416.694824
5914.373126	0.085715	0.098027	7500.438477
5914.374186	0.085668	0.098027	7591.246094
5914.375074	0.085569	0.098027	7667.231445
5914.375941	0.085627	0.098027	7741.470215
5914.377017	0.085726	0.098027	7833.711914
5914.378002	0.085584	0.098027	7918.011719
5914.378892	0.085649	0.098027	7994.239746
5914.379869	0.085792	0.098027	8078.058594
5915.408827	1.084746	0.094155	462.101837
5915.409839	1.621703	0.094155	2103.265137
5915.410891	1.603308	0.094155	3789.945312
5915.411783	1.560447	0.094155	5181.863770
5915.412687	1.517589	0.094155	6553.764160
5915.413784	0.613531	0.094155	7226.808105
5915.414737	0.087675	0.094155	7310.361816
5915.415597	0.085532	0.094155	7383.919434
5915.416631	0.085646	0.094155	7472.477051
5915.417651	0.085605	0.094155	7559.794434
5915.418531	0.085547	0.094155	7635.075684
5915.419459	0.085620	0.094155	7714.531250
5915.420516	0.085646	0.094155	7805.058594
5915.421451	0.085605	0.094155	7885.099609
5915.422312	0.085620	0.094155	7958.818359
5915.423353	0.085587	0.094155	8047.914551
5916.440022	1.129980	0.099791	505.101257
5916.440920	1.620582	0.099791	1960.384033
5916.441787	1.613676	0.099791	3359.440918
5916.442771	1.568628	0.099791	4902.970703
5916.443734	1.524269	0.099791	6370.841797
5916.444634	1.078099	0.099791	7341.131348
5916.445556	0.121831	0.099791	7453.459473
5916.446502	0.085551	0.099791	7534.390137
5916.447393	0.085580	0.099791	7610.641602
5916.448302	0.085584	0.099791	7688.437012
5916.449240	0.085569	0.099791	7768.700684
5916.450166	0.085529	0.099791	7847.899902
5916.451049	0.085616	0.099791	7923.499023
5916.451961	0.085602	0.099791	8001.567871
5916.452908	0.085594	0.099791	8082.625977
5916.453831	0.085605	0.099791	8161.639648
5917.483959	1.082303	0.102780	454.567444
5917.484871	1.616964	0.102780	1929.238770
5917.485829	1.611632	0.102780	3473.182373
5917.486753	1.568676	0.102780	4922.638672
5917.487623	1.527455	0.102780	6251.524414
5917.488604	1.074825	0.102780	7305.928223
5917.489536	0.114760	0.102780	7412.884277
5917.490436	0.085507	0.102780	7489.840332
5917.491316	0.085499	0.102780	7565.079590
5917.492280	0.085554	0.102780	7647.553711
5917.493206	0.085627	0.102780	7726.844727
5917.494077	0.085562	0.102780	7801.368652
5917.495051	0.085569	0.102780	7884.712891
5917.496000	0.085569	0.102780	7965.917969
5917.496905	0.085594	0.102780	8043.380859
5917.497776	0.085488	0.102780	8117.841309
5918.514672	1.157695	0.104846	538.328308
5918.515601	1.622717	0.104846	2045.832764
5918.516482	1.612072	0.104846	3466.067871
5918.517430	1.567727	0.104846	4952.272949
5918.518382	1.522983	0.104846	6402.153320
5918.519315	0.991534	0.104846	7327.254883
5918.520192	0.110427	0.104846	7424.099609
5918.521140	0.085554	0.104846	7505.205078
5918.522050	0.085704	0.104846	7583.195801
5918.522971	0.085620	0.104846	7662.051758
5918.523831	0.085496	0.104846	7735.578125
5918.524802	0.085569	0.104846	7818.665527
5918.525746	0.085562	0.104846	7899.435547
5918.526632	0.085624	0.104846	7975.298340
5918.527535	0.085584	0.104846	8052.580078
5918.528463	0.085587	0.104846	8132.004883
5919.558091	1.101672	0.093507	481.430786
5919.558962	1.617433	0.093507	1890.214844
5919.559901	1.613390	0.093507	3405.187988
5919.560890	1.568126	0.093507	4956.064941
5919.561816	1.524902	0.093507	6368.124512
5919.562685	1.114054	0.093507	7336.237305
5919.563737	0.108190	0.093507	7450.052734
5919.564620	0.085529	0.093507	7525.574219
5919.565542	0.085602	0.093507	7604.499023
5919.566408	0.085697	0.093507	7678.712402
5919.567461	0.085609	0.093507	7768.858887
5919.568348	0.085598	0.093507	7844.784668
5919.569220	0.085569	0.093507	7919.400879
5919.570204	0.085613	0.093507	8003.644043
5919.571129	0.085587	0.093507	8082.812012
5919.572042	0.085627	0.093507	8160.989746
5920.589294	1.112736	0.099154	526.323975
5920.590358	1.626808	0.099154	2257.247559
5920.591255	1.605275	0.099154	3697.178955
5920.592125	1.564201	0.099154	5058.033203
5920.593159	1.516212	0.099154	6625.796387
5920.594130	0.722604	0.099154	7327.444824
5920.595000	0.092325	0.099154	7407.768066
5920.595858	0.085653	0.099154	7481.258301
5920.596970	0.085693	0.099154	7576.549316
5920.597844	0.085649	0.099154	7651.406738
5920.598713	0.085624	0.099154	7725.813965
5920.599759	0.085660	0.099154	7815.414551
5920.600730	0.085638	0.099154	7898.569336
5920.601611	0.085616	0.099154	7973.997559
5920.602472	0.085609	0.099154	8047.707031
5920.603594	0.085679	0.099154	8143.838379
5921.632828	1.224774	0.101394	661.378052
5921.633837	1.628071	0.101394	2304.102051
5921.634728	1.604520	0.101394	3733.729492
5921.635699	1.558986	0.101394	5247.504395
5921.636766	1.509254	0.101394	6857.878906
5921.637684	0.547496	0.101394	7360.480469
5921.638548	0.088861	0.101394	7437.256348
5921.639634	0.085657	0.101394	7530.279785
5921.640621	0.085573	0.101394	7614.739746
5921.641516	0.085609	0.101394	7691.359863
5921.642492	0.085635	0.101394	7774.939453
5921.643539	0.085624	0.101394	7864.587402
5921.644438	0.085624	0.101394	7941.562988
5921.645308	0.085594	0.101394	8016.030273
5921.646384	0.085686	0.101394	8108.228516
5921.647345	0.085547	0.101394	8190.438965
5922.664428	1.116632	0.102784	518.117310
5922.665356	1.622245	0.102784	2023.560547
5922.666239	1.612291	0.102784	3447.213867
5922.667152	1.570730	0.102784	4881.290039
5922.668096	1.525679	0.102784	6321.530762
5922.669036	1.068336	0.102784	7325.766602
5922.669909	0.123018	0.102784	7433.161133
5922.670826	0.085477	0.102784	7511.543945
5922.671772	0.085507	0.102784	7592.433105
5922.672694	0.085558	0.102784	7671.317383
5922.673564	0.085609	0.102784	7745.797363
5922.674533	0.085591	0.102784	7828.734863
5922.675478	0.085602	0.102784	7909.628418
5922.676369	0.085551	0.102784	7985.854004
5922.677236	0.085587	0.102784	8060.058105
5922.678198	0.085620	0.102784	8142.424805
5923.707358	1.117262	0.096834	496.064331
5923.708241	1.618531	0.096834	1925.227661
5923.709169	1.612837	0.096834	3421.940430
5923.710034	1.571759	0.096834	4781.511719
5923.710994	1.527407	0.096834	6247.822754
5923.711937	1.105642	0.096834	7290.443359
5923.712819	0.127859	0.096834	7403.214844
5923.713772	0.085400	0.096834	7484.601562
5923.714719	0.085532	0.096834	7565.600586
5923.715643	0.085598	0.096834	7644.693359
5923.716507	0.085551	0.096834	7718.608887
5923.717468	0.085554	0.096834	7800.826660
5923.718418	0.085565	0.096834	7882.113770
5923.719304	0.085499	0.096834	7957.866211
5923.720222	0.085609	0.096834	8036.455566
5923.721123	0.085547	0.096834	8113.533203
5924.739005	1.096707	0.102820	466.100281
5924.740022	1.623596	0.102820	2117.297607
5924.740917	1.609215	0.102820	3557.545166
5924.741793	1.568368	0.102820	4931.435547
5924.742733	1.524708	0.102820	6364.661133
5924.743725	0.962985	0.102820	7319.941895
5924.744638	0.101173	0.102820	7412.312988
5924.745519	0.085518	0.102820	7487.653809
5924.746618	0.085551	0.102820	7581.673828
5924.747506	0.085558	0.102820	7657.649414
5924.748378	0.085609	0.102820	7732.300781
5924.749268	0.085638	0.102820	7808.519043
5924.750307	0.085613	0.102820	7897.470703
5924.751184	0.085587	0.102820	7972.530762
5924.752061	0.085584	0.102820	8047.587402
5924.753047	0.085682	0.102820	8132.070312
5925.781942	1.095044	0.104025	458.823456
5925.783043	1.625427	0.104025	2248.418945
5925.783963	1.604341	0.104025	3724.412598
5925.784847	1.562955	0.104025	5106.064941
5925.785859	1.516406	0.104025	6640.667969
5925.786849	0.668903	0.104025	7302.881348
5925.787749	0.090549	0.104025	7384.375977
5925.788610	0.085554	0.104025	7458.038086
5925.789695	0.085624	0.104025	7550.939941
5925.790592	0.085551	0.104025	7627.678711
5925.791462	0.085521	0.104025	7702.082031
5925.792459	0.085726	0.104025	7787.551270
5925.793450	0.085573	0.104025	7872.353516
5925.794328	0.085584	0.104025	7947.495605
5925.795189	0.085576	0.104025	8021.176758
5925.796278	0.085635	0.104025	8114.433105
5926.813171	1.144603	0.100093	548.264954
5926.814054	1.621487	0.100093	1980.037842
5926.815013	1.610123	0.100093	3524.145996
5926.816080	1.560095	0.100093	5188.767578
5926.817025	1.516044	0.100093	6621.428711
5926.817897	0.854795	0.100093	7366.810059
5926.818944	0.091652	0.100093	7462.769531
5926.819944	0.085503	0.100093	7548.272461
5926.820821	0.085521	0.100093	7623.274414
5926.821791	0.085664	0.100093	7706.368652
5926.822832	0.085616	0.100093	7795.495605
5926.823745	0.085547	0.100093	7873.600098
5926.824602	0.085605	0.100093	7946.963867
5926.825666	0.085620	0.100093	8038.063477
5926.826682	0.085594	0.100093	8125.027344
5926.827550	0.085576	0.100093	8199.307617
5927.856158	1.179668	0.095114	608.708679
5927.857055	1.624677	0.095114	2066.043457
5927.857918	1.610167	0.095114	3455.617676
5927.859011	1.561091	0.095114	5161.890625
5927.860010	1.514041	0.095114	6674.416992
5927.860897	0.779337	0.095114	7365.688965
5927.861902	0.093406	0.095114	7459.561523
5927.862946	0.085518	0.095114	7548.841797
5927.863824	0.085562	0.095114	7623.964844
5927.864702	0.085624	0.095114	7699.142578
5927.865779	0.085631	0.095114	7791.367187
5927.866740	0.085573	0.095114	7873.602539
5927.867611	0.085554	0.095114	7948.120117
5927.868627	0.085635	0.095114	8035.125000
5927.869661	0.085671	0.095114	8123.708984
5927.870551	0.085624	0.095114	8199.914062
5928.887797	1.124447	0.101942	532.987854
5928.888707	1.622040	0.101942	2009.043945
5928.889597	1.611790	0.101942	3443.536621
5928.890521	1.569562	0.101942	4893.811523
5928.891462	1.524869	0.101942	6328.713867
5928.892412	1.038724	0.101942	7315.501953
5928.893287	0.114935	0.101942	7416.070312
5928.894293	0.085496	0.101942	7502.079102
5928.895252	0.085532	0.101942	7584.104492
5928.896169	0.085547	0.101942	7662.550781
5928.897029	0.085558	0.101942	7736.130371
5928.897996	0.085580	0.101942	7818.886230
5928.898946	0.085594	0.101942	7900.201172
5928.899813	0.085573	0.101942	7974.392578
5928.900690	0.085576	0.101942	8049.442871
5928.901651	0.085558	0.101942	8131.664062
5929.931722	1.107788	0.101837	478.564453
5929.932603	1.618451	0.101837	1904.419678
5929.933519	1.613547	0.101837	3382.429199
5929.934478	1.569620	0.101837	4887.695312
5929.935406	1.526030	0.101837	6303.851562
5929.936278	1.163958	0.101837	7318.822754
5929.937242	0.124904	0.101837	7439.229980
5929.938176	0.085518	0.101837	7519.103516
5929.939100	0.085620	0.101837	7598.216309
5929.939961	0.085609	0.101837	7671.925781
5929.940910	0.085620	0.101837	7753.179199
5929.941861	0.085448	0.101837	7834.440430
5929.942750	0.085514	0.101837	7910.462402
5929.943648	0.085584	0.101837	7987.316406
5929.944598	0.085536	0.101837	8068.575684
5929.945526	0.085485	0.101837	8147.905273
5930.963429	1.141915	0.107122	516.145752
5930.964316	1.619934	0.107122	1953.027344
5930.965245	1.612189	0.107122	3450.750488
5930.966114	1.570536	0.107122	4815.545898
5930.967089	1.526056	0.107122	6303.450195
5930.968013	1.078817	0.107122	7300.277344
5930.968890	0.124790	0.107122	7409.718262
5930.969872	0.085463	0.107122	7493.642578
5930.970788	0.085605	0.107122	7572.057129
5930.971701	0.085642	0.107122	7650.248535
5930.972563	0.085584	0.107122	7724.021484
5930.973523	0.085499	0.107122	7806.100586
5930.974461	0.085638	0.107122	7886.429199
5930.975348	0.085620	0.107122	7962.374023
5930.976265	0.085605	0.107122	8040.874023
5930.977211	0.085569	0.107122	8121.822266
5932.005306	1.089316	0.097438	458.602203
5932.006317	1.623051	0.097438	2099.506348
5932.007254	1.608596	0.097438	3606.760986
5932.008122	1.566995	0.097438	4966.912109
5932.008996	1.524488	0.097438	6299.314941
5932.009996	0.984847	0.097438	7284.162109
5932.010927	0.104238	0.097438	7381.208008
5932.011802	0.085514	0.097438	7456.032715
5932.012817	0.085631	0.097438	7542.948242
5932.013709	0.085638	0.097438	7619.337891
5932.014630	0.085613	0.097438	7698.187500
5932.015495	0.085664	0.097438	7772.287109
5932.016494	0.085554	0.097438	7857.755859
5932.017422	0.085616	0.097438	7937.208008
5932.018296	0.085587	0.097438	8012.011230
5932.019200	0.085638	0.097438	8089.428223
5933.036488	1.103188	0.097801	480.990143
5933.037359	1.617330	0.097801	1889.684814
5933.038364	1.610724	0.097801	3508.462402
5933.039380	1.563146	0.097801	5096.618652
5933.040265	1.521530	0.097801	6443.172363
5933.041138	1.040204	0.097801	7351.270508
5933.042123	0.113888	0.097801	7463.450195
5933.043054	0.085481	0.097801	7543.033203
5933.043962	0.085540	0.097801	7620.703125
5933.044855	0.085624	0.097801	7697.165039
5933.045879	0.085602	0.097801	7784.821289
5933.046769	0.085543	0.097801	7860.954590
5933.047645	0.085554	0.097801	7935.899902
5933.048583	0.085715	0.097801	8016.300781
5933.049575	0.085551	0.097801	8101.166992
5933.050495	0.085466	0.097801	8179.795898
5934.080448	1.091715	0.099775	466.162354
5934.081393	1.616085	0.099775	1993.362793
5934.082448	1.605985	0.099775	3687.677002
5934.083329	1.563464	0.099775	5065.088867
5934.084202	1.522346	0.099775	6394.097168
5934.085243	0.827948	0.099775	7255.991211
5934.086192	0.092640	0.099775	7343.906738
5934.087063	0.085496	0.099775	7418.373535
5934.087992	0.085587	0.099775	7497.883789
5934.089056	0.085653	0.099775	7589.018555
5934.089948	0.085536	0.099775	7665.316406
5934.090808	0.085624	0.099775	7738.952637
5934.091850	0.085734	0.099775	7828.287109
5934.092812	0.085573	0.099775	7910.607910
5934.093683	0.085594	0.099775	7985.160645
5934.094562	0.085715	0.099775	8060.504395
5935.112210	1.159768	0.101116	590.321960
5935.113090	1.623113	0.101116	2018.661133
5935.113966	1.610632	0.101116	3429.575195
5935.115065	1.560930	0.101116	5145.037109
5935.116038	1.516278	0.101116	6620.375977
5935.116911	0.856692	0.101116	7368.268066
5935.117953	0.093029	0.101116	7465.203613
5935.118972	0.085580	0.101116	7552.409668
5935.119861	0.085613	0.101116	7628.519531
5935.120780	0.085671	0.101116	7707.251465
5935.121846	0.085704	0.101116	7798.612305
5935.122784	0.085554	0.101116	7878.862305
5935.123641	0.085602	0.101116	7952.223145
5935.124687	0.085649	0.101116	8041.812500
5935.125703	0.085554	0.101116	8128.735352
5935.126582	0.085609	0.101116	8203.985352
5936.155636	1.146515	0.103424	551.473633
5936.156504	1.620641	0.103424	1958.189941
5936.157473	1.609644	0.103424	3517.934570
5936.158537	1.560026	0.103424	5177.801758
5936.159466	1.516652	0.103424	6586.770996
5936.160349	0.859109	0.103424	7345.364258
5936.161414	0.091044	0.103424	7442.325684
5936.162410	0.085507	0.103424	7527.490234
5936.163297	0.085591	0.103424	7603.409180
5936.164265	0.085587	0.103424	7686.257324
5936.165321	0.085616	0.103424	7776.668457
5936.166226	0.085594	0.103424	7854.131348
5936.167084	0.085609	0.103424	7927.583984
5936.168162	0.085697	0.103424	8019.965332
5936.169142	0.085540	0.103424	8103.793945
5936.170036	0.085594	0.103424	8180.315430
5937.186291	1.143439	0.102244	549.994019
5937.187237	1.623853	0.102244	2086.158691
5937.188165	1.608483	0.102244	3578.830566
5937.189038	1.567020	0.102244	4946.839355
5937.190018	1.522478	0.102244	6438.867676
5937.190979	0.932190	0.102244	7334.702148
5937.191867	0.103293	0.102244	7426.426758
5937.192765	0.085492	0.102244	7503.198730
5937.193704	0.085598	0.102244	7583.575195
5937.194632	0.085551	0.102244	7662.966309
5937.195518	0.085565	0.102244	7738.776855
5937.196433	0.085624	0.102244	7817.122559
5937.197384	0.085510	0.102244	7898.442871
5937.198301	0.085598	0.102244	7976.936523
5937.199176	0.085587	0.102244	8051.825195
5937.200127	0.085602	0.102244	8133.232422
5938.230248	1.140868	0.103461	522.517517
5938.231140	1.620322	0.103461	1967.844971
5938.232006	1.613199	0.103461	3364.875732
5938.232990	1.568851	0.103461	4908.625488
5938.233944	1.524587	0.103461	6363.082031
5938.234830	1.122821	0.103461	7357.901367
5938.235729	0.132019	0.103461	7476.586426
5938.236677	0.085529	0.103461	7557.667480
5938.237595	0.085529	0.103461	7636.182617
5938.238470	0.085609	0.103461	7711.090820
5938.239403	0.085584	0.103461	7790.940430
5938.240334	0.085584	0.103461	7870.618652
5938.241259	0.085660	0.103461	7949.854492
5938.242123	0.085704	0.103461	8023.902832
5938.243093	0.085609	0.103461	8106.943848
5938.244041	0.085573	0.103461	8188.066406
5939.261490	1.177581	0.103912	641.781433
5939.262432	1.626669	0.103912	2174.103271
5939.263352	1.606465	0.103912	3652.050781
5939.264219	1.564980	0.103912	5008.888672
5939.265265	1.517274	0.103912	6595.957520
5939.266159	0.849503	0.103912	7355.413086
5939.267036	0.098665	0.103912	7441.941895
5939.267989	0.085587	0.103912	7523.506348
5939.268966	0.085510	0.103912	7607.049805
5939.269889	0.085627	0.103912	7686.083984
5939.270747	0.085620	0.103912	7759.545898
5939.271799	0.085609	0.103912	7849.606934
5939.272702	0.085576	0.103912	7926.882324
5939.273606	0.085518	0.103912	8004.190430
5939.274485	0.085635	0.103912	8079.463379
5939.275463	0.085602	0.103912	8163.182129
5940.304924	1.177203	0.106953	601.550903
5940.305826	1.624292	0.106953	2066.662354
5940.306707	1.610654	0.106953	3485.648682
5940.307702	1.564537	0.106953	5042.363281
5940.308696	1.517688	0.106953	6550.945312
5940.309591	0.896144	0.106953	7352.994141
5940.310453	0.102206	0.106953	7441.095703
5940.311558	0.085573	0.106953	7535.653320
5940.312476	0.085602	0.106953	7614.235840
5940.313351	0.085554	0.106953	7689.095703
5940.314352	0.085668	0.106953	7774.849121
5940.315344	0.085584	0.106953	7859.748047
5940.316230	0.085580	0.106953	7935.571777
5940.317085	0.085627	0.106953	8008.783203
5940.318180	0.085646	0.106953	8102.565430
5940.319083	0.085602	0.106953	8179.863770
5941.335991	1.081143	0.105616	455.161011
5941.336973	1.615994	0.105616	2042.066772
5941.338041	1.603293	0.105616	3754.384277
5941.338959	1.559637	0.105616	5186.131348
5941.339834	1.517823	0.105616	6514.227051
5941.340913	0.665588	0.105616	7232.396973
5941.341907	0.087513	0.105616	7319.385254
5941.342799	0.085496	0.105616	7395.647461
5941.343778	0.085741	0.105616	7479.587891
5941.344820	0.085660	0.105616	7568.846191
5941.345726	0.085679	0.105616	7646.471191
5941.346589	0.085649	0.105616	7720.386719
5941.347688	0.085664	0.105616	7814.531738
5941.348660	0.085573	0.105616	7897.708008
5941.349537	0.085631	0.105616	7972.806641
5941.350549	0.085649	0.105616	8059.483887
5942.378935	1.091309	0.100826	459.440918
5942.379898	1.620875	0.100826	2020.343750
5942.380831	1.610068	0.100826	3522.537598
5942.381710	1.569155	0.100826	4901.825195
5942.382623	1.526572	0.100826	6295.585937
5942.383594	1.047352	0.100826	7312.564941
5942.384516	0.113881	0.100826	7417.562988
5942.385380	0.085463	0.100826	7491.402832
5942.386311	0.085558	0.100826	7571.057129
5942.387235	0.085562	0.100826	7650.116211
5942.388161	0.085573	0.100826	7729.356445
5942.389038	0.085616	0.100826	7804.441895
5942.390010	0.085602	0.100826	7887.646973
5942.390959	0.085587	0.100826	7968.869141
5942.391852	0.085587	0.100826	8045.298340
5942.392761	0.085569	0.100826	8123.080566
5943.410650	1.130738	0.104415	500.917145
5943.411513	1.617729	0.104415	1897.017578
5943.412500	1.610793	0.104415	3486.870605
5943.413444	1.567060	0.104415	4966.175781
5943.414323	1.525529	0.104415	6307.115234
5943.415238	1.079282	0.104415	7294.658203
5943.416197	0.115111	0.104415	7405.049805
5943.417118	0.085543	0.104415	7483.834961
5943.417991	0.085547	0.104415	7558.517578
5943.418905	0.085573	0.104415	7636.730957
5943.419869	0.085605	0.104415	7719.254395
5943.420795	0.085569	0.104415	7798.491211
5943.421655	0.085510	0.104415	7872.030273
5943.422618	0.085668	0.104415	7954.528320
5943.423547	0.085649	0.104415	8034.096680
5943.424412	0.085609	0.104415	8108.148437
5944.454146	1.126274	0.107465	559.758423
5944.455106	1.625189	0.107465	2119.939941
5944.456025	1.607695	0.107465	3597.411865
5944.456913	1.565826	0.107465	4987.865723
5944.457952	1.518215	0.107465	6565.291504
5944.458857	0.868733	0.107465	7351.494629
5944.459776	0.096969	0.107465	7440.609375
5944.460637	0.085540	0.107465	7514.258789
5944.461643	0.085551	0.107465	7600.322754
5944.462562	0.085594	0.107465	7678.983887
5944.463429	0.085642	0.107465	7753.235352
5944.464407	0.085646	0.107465	7836.997070
5944.465329	0.085598	0.107465	7915.918457
5944.466254	0.085605	0.107465	7995.103516
5944.467115	0.085620	0.107465	8068.822266
5944.468149	0.085562	0.107465	8157.292969
5945.485254	1.101837	0.099976	478.197327
5945.486134	1.617693	0.099976	1901.767090
5945.487113	1.611412	0.099976	3479.339844
5945.488121	1.564039	0.099976	5055.891602
5945.489012	1.522478	0.099976	6412.419434
5945.489882	1.033693	0.099976	7311.731934
5945.490967	0.098789	0.099976	7418.917969
5945.491879	0.085598	0.099976	7496.983398
5945.492756	0.085686	0.099976	7572.129883
5945.493768	0.085763	0.099976	7658.921875
5945.494767	0.085613	0.099976	7744.449219
5945.495644	0.085624	0.099976	7819.541504
5945.496499	0.085616	0.099976	7892.743652
5945.497553	0.085598	0.099976	7982.963867
5945.498476	0.085657	0.099976	8062.024902
5945.499350	0.085657	0.099976	8136.888672
5946.529207	1.083794	0.106305	456.277283
5946.530242	1.622607	0.106305	2135.675781
5946.531268	1.602689	0.106305	3780.034912
5946.532163	1.560245	0.106305	5176.454590
5946.533133	1.515937	0.106305	6646.914062
5946.534187	0.606324	0.106305	7285.979980
5946.535097	0.088297	0.106305	7366.330566
5946.535955	0.085525	0.106305	7439.710937
5946.537016	0.085620	0.106305	7530.553711
5946.538024	0.085569	0.106305	7616.807129
5946.538898	0.085543	0.106305	7691.571777
5946.539869	0.085635	0.106305	7774.723145
5946.540920	0.085671	0.106305	7864.763672
5946.541810	0.085551	0.106305	7940.903809
5946.542674	0.085598	0.106305	8014.860840
5946.543749	0.085726	0.106305	8107.016602
5947.559393	1.103536	0.097785	508.730255
5947.560294	1.620143	0.097785	1968.478882
5947.561171	1.613430	0.097785	3383.457275
5947.562086	1.572089	0.097785	4821.918457
5947.563025	1.527297	0.097785	6256.050781
5947.563967	1.101185	0.097785	7293.367187
5947.564838	0.129239	0.097785	7405.934570
5947.565760	0.085459	0.097785	7484.727539
5947.566710	0.085594	0.097785	7566.042480
5947.567636	0.085613	0.097785	7645.319824
5947.568507	0.085598	0.097785	7719.875977
5947.569478	0.085594	0.097785	7802.988281
5947.570408	0.085569	0.097785	7882.567383
5947.571312	0.085602	0.097785	7959.951172
5947.572170	0.085562	0.097785	8033.362793
5947.573131	0.085624	0.097785	8115.647461
5948.602873	1.138890	0.102881	538.695129
5948.603765	1.621355	0.102881	1984.943848
5948.604644	1.612855	0.102881	3402.643555
5948.605557	1.571034	0.102881	4836.997559
5948.606524	1.525876	0.102881	6312.520020
5948.607454	1.081370	0.102881	7318.193848
5948.608318	0.125958	0.102881	7427.021973
5948.609289	0.085455	0.102881	7509.999023
5948.610225	0.085518	0.102881	7590.043457
5948.611150	0.085558	0.102881	7669.184570
5948.612007	0.085569	0.102881	7742.517090
5948.612960	0.085576	0.102881	7824.071289
5948.613906	0.085594	0.102881	7905.043457
5948.614793	0.085602	0.102881	7980.972168
5948.615725	0.085653	0.102881	8060.800781
5948.616795	0.085730	0.102881	8152.531738
5949.633485	1.097230	0.100645	476.197968
5949.634353	1.616393	0.100645	1879.226929
5949.635344	1.611467	0.100645	3476.190918
5949.636296	1.567463	0.100645	4968.416016
5949.637184	1.525327	0.100645	6322.906738
5949.638092	1.103643	0.100645	7325.014160
5949.639010	0.121447	0.100645	7436.501953
5949.639961	0.085558	0.100645	7517.867676
5949.640848	0.085642	0.100645	7593.832031
5949.641759	0.085543	0.100645	7671.761719
5949.642714	0.085573	0.100645	7753.483398
5949.643603	0.085565	0.100645	7829.550781
5949.644505	0.085638	0.100645	7906.796875
5949.645456	0.085514	0.100645	7988.120605
5949.646391	0.085514	0.100645	8068.076172
5949.647266	0.085554	0.100645	8142.936035
5950.676919	1.090767	0.101716	458.122009
5950.677883	1.621677	0.101716	2021.418945
5950.678811	1.610306	0.101716	3515.783203
5950.679704	1.568280	0.101716	4916.257324
5950.680624	1.526067	0.101716	6320.238770
5950.681577	1.023750	0.101716	7295.872559
5950.682526	0.109391	0.101716	7399.684570
5950.683406	0.085543	0.101716	7474.962402
5950.684333	0.085529	0.101716	7554.247559
5950.685290	0.085536	0.101716	7636.105469
5950.686193	0.085598	0.101716	7713.400391
5950.687066	0.085551	0.101716	7788.085937
5950.688013	0.085543	0.101716	7869.095215
5950.688960	0.085525	0.101716	7950.087402
5950.689859	0.085558	0.101716	8027.003906
5950.690723	0.085591	0.101716	8100.954590
5951.708623	1.092111	0.101769	469.607513
5951.709487	1.615829	0.101769	1865.683716
5951.710550	1.608995	0.101769	3576.045898
5951.711438	1.566724	0.101769	4967.296387
5951.712313	1.525825	0.101769	6302.393555
5951.713202	1.081776	0.101769	7264.092285
5951.714246	0.107131	0.101769	7375.937500
5951.715120	0.085562	0.101769	7450.718262
5951.715995	0.085532	0.101769	7525.559082
5951.716985	0.085657	0.101769	7610.359375
5951.717911	0.085514	0.101769	7689.545410
5951.718831	0.085576	0.101769	7768.275391
5951.719696	0.085631	0.101769	7842.346191
5951.720729	0.085536	0.101769	7930.704590
5951.721615	0.085470	0.101769	8006.431152
5951.722533	0.085646	0.101769	8085.053711
5952.752571	1.107272	0.107844	469.483185
5952.753676	1.624819	0.107844	2264.908691
5952.754578	1.604630	0.107844	3712.285156
5952.755451	1.563710	0.107844	5077.403809
5952.756463	1.517347	0.107844	6612.959473
5952.757467	0.698522	0.107844	7314.275391
5952.758339	0.091362	0.107844	7393.943359
5952.759202	0.085492	0.107844	7467.723145
5952.760283	0.085609	0.107844	7560.266602
5952.761200	0.085551	0.107844	7638.716309
5952.762077	0.085613	0.107844	7713.798828
5952.763051	0.085602	0.107844	7797.174805
5952.764053	0.085602	0.107844	7882.947754
5952.764941	0.085649	0.107844	7959.004395
5952.765801	0.085540	0.107844	8032.568359
5952.766858	0.085616	0.107844	8123.064941
5953.783816	1.174354	0.103404	580.130981
5953.784699	1.622054	0.103404	2012.405029
5953.785636	1.609530	0.103404	3520.534668
5953.786693	1.560560	0.103404	5170.046875
5953.787625	1.517113	0.103404	6583.996094
5953.788491	0.903168	0.103404	7366.139160
5953.789535	0.093768	0.103404	7464.033203
5953.790549	0.085562	0.103404	7550.792480
5953.791420	0.085631	0.103404	7625.376953
5953.792368	0.085642	0.103404	7706.565430
5953.793418	0.085668	0.103404	7796.516602
5953.794337	0.085620	0.103404	7875.201660
5953.795207	0.085587	0.103404	7949.662598
5953.796272	0.085660	0.103404	8040.891113
5953.797264	0.085529	0.103404	8125.735352
5953.798153	0.085642	0.103404	8201.871094
5954.826215	1.150331	0.102671	538.354858
5954.827107	1.620817	0.102671	1984.123291
5954.827974	1.612701	0.102671	3382.335449
5954.828948	1.568650	0.102671	4910.200195
5954.829892	1.524675	0.102671	6349.493652
5954.830794	1.098146	0.102671	7340.020996
5954.831714	0.127137	0.102671	7456.987305
5954.832668	0.085573	0.102671	7538.623535
5954.833572	0.085609	0.102671	7616.014160
5954.834448	0.085594	0.102671	7690.995117
5954.835386	0.085488	0.102671	7771.183105
5954.836351	0.085518	0.102671	7853.707520
5954.837273	0.085543	0.102671	7932.578125
5954.838138	0.085573	0.102671	8006.598145
5954.839220	0.085620	0.102671	8099.239258
5954.840263	0.085594	0.102671	8188.514160
5955.858418	1.140721	0.106180	544.124146
5955.859341	1.622662	0.106180	2041.841431
5955.860231	1.610874	0.106180	3475.519287
5955.861156	1.568383	0.106180	4926.272949
5955.862126	1.523196	0.106180	6403.772949
5955.863056	1.001774	0.106180	7335.422363
5955.863919	0.113822	0.106180	7433.650879
5955.864870	0.085444	0.106180	7514.908203
5955.865803	0.085558	0.106180	7594.733887
5955.866701	0.085602	0.106180	7671.604492
5955.867577	0.085605	0.106180	7746.594727
5955.868537	0.085584	0.106180	7828.754883
5955.869484	0.085569	0.106180	7909.788574
5955.870381	0.085609	0.106180	7986.580078
5955.871290	0.085573	0.106180	8064.365723
5955.872212	0.085518	0.106180	8143.212891
5956.901355	1.161859	0.104605	550.721252
5956.902291	1.623263	0.104605	2070.095215
5956.903221	1.608779	0.104605	3566.260010
5956.904089	1.567280	0.104605	4926.659180
5956.905064	1.522753	0.104605	6411.342773
5956.906029	0.956550	0.104605	7334.414062
5956.906916	0.106036	0.104605	7428.468262
5956.907819	0.085536	0.104605	7505.707031
5956.908745	0.085620	0.104605	7584.991211
5956.909675	0.085529	0.104605	7664.532715
5956.910536	0.085605	0.104605	7738.239258
5956.911502	0.085565	0.104605	7820.895020
5956.912446	0.085543	0.104605	7901.647949
5956.913338	0.085624	0.104605	7978.024414
5956.914249	0.085510	0.104605	8055.924316
5956.915204	0.085558	0.104605	8137.631836
5957.932992	1.084431	0.103916	460.883240
5957.933931	1.617715	0.103916	1979.917480
5957.934879	1.609402	0.103916	3505.630371
5957.935807	1.566478	0.103916	4959.322266
5957.936689	1.524741	0.103916	6304.144043
5957.937655	1.027723	0.103916	7296.924805
5957.938605	0.107820	0.103916	7399.353516
5957.939506	0.085477	0.103916	7476.368652
5957.940417	0.085565	0.103916	7554.318359
5957.941339	0.085620	0.103916	7633.260254
5957.942286	0.085540	0.103916	7714.266113
5957.943170	0.085598	0.103916	7789.935059
5957.944101	0.085547	0.103916	7869.579102
5957.945053	0.085594	0.103916	7951.064941
5957.945925	0.085573	0.103916	8025.684082
5957.946835	0.085503	0.103916	8103.491699
5958.975432	1.099944	0.101616	467.476105
5958.976333	1.616078	0.101616	1923.562256
5958.977283	1.610826	0.101616	3453.847168
5958.978204	1.568346	0.101616	4898.293945
5958.979084	1.526942	0.101616	6242.002930
5958.980030	1.088390	0.101616	7271.619629
5958.980967	0.119630	0.101616	7383.712891
5958.981883	0.085485	0.101616	7462.016602
5958.982754	0.085547	0.101616	7536.527832
5958.983721	0.085518	0.101616	7619.223145
5958.984633	0.085573	0.101616	7697.265137
5958.985552	0.085540	0.101616	7775.875977
5958.986413	0.085499	0.101616	7849.490723
5958.987370	0.085543	0.101616	7931.355469
5958.988311	0.085525	0.101616	8011.834473
5958.989183	0.085496	0.101616	8086.386719
5960.007625	1.109323	0.105451	485.883270
5960.008498	1.617045	0.105451	1897.563354
5960.009504	1.610061	0.105451	3517.284668
5960.010450	1.565420	0.105451	4998.171875
5960.011372	1.522698	0.105451	6402.099121
5960.012245	1.066461	0.105451	7333.119629
5960.013275	0.103630	0.105451	7439.858887
5960.014151	0.085496	0.105451	7514.752930
5960.015013	0.085507	0.105451	7588.459473
5960.015972	0.085635	0.105451	7670.583008
5960.016922	0.085543	0.105451	7751.849121
5960.017832	0.085587	0.105451	7829.733398
5960.018707	0.085627	0.105451	7904.657227
5960.019744	0.085562	0.105451	7993.384766
5960.020640	0.085573	0.105451	8070.057617
5960.021512	0.085624	0.105451	8144.721680
5961.050060	1.100468	0.105241	475.401978
5961.050940	1.617909	0.105241	1899.161865
5961.051804	1.613328	0.105241	3293.076904
5961.052919	1.564838	0.105241	5037.871094
5961.053816	1.522515	0.105241	6403.566406
5961.054688	1.072145	0.105241	7338.476562
5961.055753	0.102400	0.105241	7447.532227
5961.056708	0.085521	0.105241	7529.205078
5961.057610	0.085638	0.105241	7606.451172
5961.058467	0.085620	0.105241	7679.827637
5961.059572	0.085690	0.105241	7774.514648
5961.060458	0.085594	0.105241	7850.351562
5961.061314	0.085584	0.105241	7923.610840
5961.062396	0.085671	0.105241	8016.307129
5961.063357	0.085605	0.105241	8098.574219
5961.064261	0.085620	0.105241	8175.974609
5962.082835	1.158864	0.105398	589.861572
5962.083721	1.623032	0.105398	2027.868164
5962.084599	1.609845	0.105398	3441.312012
5962.085700	1.560330	0.105398	5159.234863
5962.086659	1.515872	0.105398	6612.956055
5962.087525	0.873772	0.105398	7369.642578
5962.088561	0.093918	0.105398	7466.941895
5962.089598	0.085627	0.105398	7555.737793
5962.090477	0.085554	0.105398	7630.939941
5962.091396	0.085693	0.105398	7709.692383
5962.092469	0.085712	0.105398	7801.661133
5962.093413	0.085580	0.105398	7882.448730
5962.094271	0.085668	0.105398	7955.951660
5962.095292	0.085701	0.105398	8043.452148
5962.096324	0.085682	0.105398	8131.876465
5962.097219	0.085613	0.105398	8208.500000
5963.125222	1.128695	0.105128	523.714478
5963.126120	1.620831	0.105128	1979.220947
5963.126991	1.612460	0.105128	3383.673340
5963.127964	1.568492	0.105128	4909.816406
5963.128931	1.523551	0.105128	6383.090332
5963.129832	1.053640	0.105128	7332.419922
5963.130736	0.120579	0.105128	7441.422852
5963.131662	0.085485	0.105128	7520.581543
5963.132595	0.085584	0.105128	7600.431152
5963.133452	0.085554	0.105128	7673.750977
5963.134401	0.085554	0.105128	7754.941895
5963.135356	0.085587	0.105128	7836.677734
5963.136245	0.085536	0.105128	7912.719238
5963.137155	0.085576	0.105128	7990.593750
5963.138074	0.085565	0.105128	8069.228027
5963.139015	0.085602	0.105128	8149.779297
5964.156897	1.107759	0.104569	511.784607
5964.157824	1.621487	0.104569	2014.902832
5964.158706	1.611650	0.104569	3436.378418
5964.159602	1.570195	0.104569	4843.273437
5964.160550	1.525565	0.104569	6289.509277
5964.161513	1.059089	0.104569	7309.412109
5964.162378	0.121761	0.104569	7414.735840
5964.163290	0.085562	0.104569	7492.768066
5964.164230	0.085576	0.104569	7573.209473
5964.165154	0.085580	0.104569	7652.285156
5964.166028	0.085609	0.104569	7727.107422
5964.166998	0.085576	0.104569	7810.116211
5964.167932	0.085646	0.104569	7890.109375
5964.168834	0.085649	0.104569	7967.365234
5964.169698	0.085554	0.104569	8041.284180
5964.170666	0.085584	0.104569	8124.128906
5965.199375	1.175303	0.102679	598.229126
5965.200282	1.623545	0.102679	2070.784424
5965.201194	1.609076	0.102679	3538.261719
5965.202079	1.567181	0.102679	4925.217285
5965.203068	1.522255	0.102679	6430.727051
5965.203995	0.968778	0.102679	7328.784180
5965.204883	0.107139	0.102679	7423.923340
5965.205902	0.085521	0.102679	7511.069336
5965.206799	0.085573	0.102679	7587.828125
5965.207716	0.085499	0.102679	7666.230957
5965.208582	0.085540	0.102679	7740.308105
5965.209543	0.085587	0.102679	7822.557129
5965.210462	0.085631	0.102679	7901.251953
5965.211386	0.085543	0.102679	7980.293945
5965.212266	0.085558	0.102679	8055.584961
5965.213227	0.085562	0.102679	8137.809570
5966.232114	1.198491	0.110353	643.589783
5966.233061	1.626284	0.110353	2183.680908
5966.233937	1.607974	0.110353	3592.265625
5966.234891	1.563530	0.110353	5083.873535
5966.235925	1.515326	0.110353	6650.720703
5966.236810	0.820236	0.110353	7376.629395
5966.237669	0.097797	0.110353	7460.636719
5966.238740	0.085635	0.110353	7552.351562
5966.239673	0.085587	0.110353	7632.204590
5966.240538	0.085609	0.110353	7706.256348
5966.241469	0.085646	0.110353	7785.992676
5966.242520	0.085671	0.110353	7876.033203
5966.243412	0.085620	0.110353	7952.406250
5966.244277	0.085635	0.110353	8026.480469
5966.245291	0.085759	0.110353	8113.440430
5966.246249	0.085510	0.110353	8195.359375
5967.274549	1.207339	0.107235	657.999695
5967.275602	1.627112	0.107235	2371.348389
5967.276502	1.601400	0.107235	3812.608398
5967.277368	1.558363	0.107235	5162.150879
5967.278480	1.508796	0.107235	6839.932617
5967.279447	0.496758	0.107235	7320.297363
5967.280316	0.087997	0.107235	7396.766602
5967.281373	0.085730	0.107235	7487.383301
5967.282402	0.085613	0.107235	7575.479004
5967.283294	0.085609	0.107235	7651.842285
5967.284191	0.085627	0.107235	7728.649902
5967.285264	0.085646	0.107235	7820.547852
5967.286208	0.085613	0.107235	7901.366211
5967.287069	0.085675	0.107235	7975.132324
5967.288112	0.085631	0.107235	8064.445801
5967.289134	0.085631	0.107235	8151.960937
5968.306676	1.130010	0.103219	544.664734
5968.307604	1.622842	0.103219	2050.661865
5968.308532	1.608827	0.103219	3543.653320
5968.309410	1.567416	0.103219	4919.844238
5968.310368	1.523166	0.103219	6379.037598
5968.311313	0.976772	0.103219	7302.087402
5968.312229	0.105018	0.103219	7398.284180
5968.313092	0.085459	0.103219	7472.035156
5968.314059	0.085573	0.103219	7554.783691
5968.315000	0.085551	0.103219	7635.286621
5968.315884	0.085646	0.103219	7710.997559
5968.316768	0.085532	0.103219	7786.607910
5968.317713	0.085576	0.103219	7867.477539
5968.318661	0.085547	0.103219	7948.576172
5968.319551	0.085642	0.103219	8024.797852
5968.320456	0.085562	0.103219	8102.230957
5969.348541	1.087925	0.104089	461.280121
5969.349412	1.615170	0.104089	1868.092896
5969.350391	1.611119	0.104089	3445.378906
5969.351336	1.567434	0.104089	4926.604004
5969.352233	1.525763	0.104089	6295.213379
5969.353158	1.088577	0.104089	7302.146973
5969.354112	0.117418	0.104089	7414.164062
5969.354998	0.085507	0.104089	7489.922852
5969.355931	0.085591	0.104089	7569.779297
5969.356843	0.085558	0.104089	7647.808105
5969.357766	0.085620	0.104089	7726.835449
5969.358651	0.085569	0.104089	7802.563965
5969.359560	0.085613	0.104089	7880.386230
5969.360516	0.085620	0.104089	7962.239258
5969.361438	0.085558	0.104089	8041.123535
5969.362302	0.085638	0.104089	8115.115234
5970.380790	1.159948	0.104971	552.135010
5970.381669	1.620579	0.104971	1976.623657
5970.382593	1.610427	0.104971	3464.658447
5970.383552	1.566207	0.104971	4966.651367
5970.384477	1.523295	0.104971	6375.699219
5970.385361	1.079117	0.104971	7329.639160
5970.386331	0.111431	0.104971	7437.727051
5970.387256	0.085408	0.104971	7516.729004
5970.388120	0.085554	0.104971	7590.647949
5970.389118	0.085598	0.104971	7676.074707
5970.390062	0.085562	0.104971	7756.844727
5970.390978	0.085573	0.104971	7835.229004
5970.391835	0.085551	0.104971	7908.545898
5970.392779	0.085547	0.104971	7989.302246
5970.393734	0.085529	0.104971	8070.981934
5970.394628	0.085613	0.104971	8147.519531
5971.424693	1.087727	0.111219	456.845306
5971.425656	1.622003	0.111219	2018.834473
5971.426587	1.609186	0.111219	3516.986328
5971.427509	1.566760	0.111219	4961.539062
5971.428378	1.525430	0.111219	6287.137695
5971.429350	1.038677	0.111219	7296.731445
5971.430298	0.110596	0.111219	7401.576172
5971.431185	0.085551	0.111219	7477.459473
5971.432105	0.085576	0.111219	7556.189453
5971.433053	0.085569	0.111219	7637.308594
5971.433931	0.085598	0.111219	7712.463867
5971.434807	0.085540	0.111219	7787.396484
5971.435822	0.085635	0.111219	7874.315918
5971.436748	0.085573	0.111219	7953.556152
5971.437634	0.085616	0.111219	8029.412109
5971.438573	0.085631	0.111219	8109.819824
5972.456406	1.128735	0.110861	510.188354
5972.457292	1.619092	0.110861	1944.703613
5972.458297	1.608926	0.110861	3561.673828
5972.459212	1.565317	0.110861	4993.939453
5972.460144	1.522577	0.110861	6412.981445
5972.461015	1.051175	0.110861	7328.555176
5972.462048	0.101748	0.110861	7433.661133
5972.462922	0.085518	0.110861	7508.403320
5972.463788	0.085598	0.110861	7582.531250
5972.464753	0.085624	0.110861	7665.158203
5972.465695	0.085569	0.110861	7745.764160
5972.466602	0.085616	0.110861	7823.418457
5972.467476	0.085580	0.110861	7898.215332
5972.468520	0.085660	0.110861	7987.645020
5972.469416	0.085642	0.110861	8064.380371
5972.470288	0.085620	0.110861	8139.041016
5973.498821	1.089181	0.111251	469.436981
5973.499686	1.615920	0.111251	1867.208130
5973.500709	1.608944	0.111251	3513.157959
5973.501774	1.560183	0.111251	5174.752930
5973.502665	1.518106	0.111251	6527.384766
5973.503604	0.856201	0.111251	7331.357422
5973.504674	0.090308	0.111251	7427.986328
5973.505619	0.085584	0.111251	7508.862793
5973.506481	0.085671	0.111251	7582.711426
5973.507546	0.085752	0.111251	7674.037109
5973.508550	0.085587	0.111251	7759.966797
5973.509439	0.085642	0.111251	7836.102539
5973.510385	0.085653	0.111251	7917.130371
5973.511432	0.085679	0.111251	8006.835937
5973.512349	0.085558	0.111251	8085.292480
5973.513221	0.085525	0.111251	8159.870117
5974.531604	1.164045	0.109809	597.155334
5974.532484	1.622878	0.109809	2025.288330
5974.533368	1.610178	0.109809	3448.686035
5974.534439	1.561589	0.109809	5121.148437
5974.535403	1.516769	0.109809	6583.313477
5974.536274	0.912393	0.109809	7378.007324
5974.537312	0.095804	0.109809	7477.452148
5974.538346	0.085514	0.109809	7565.873535
5974.539238	0.085594	0.109809	7642.223633
5974.540160	0.085609	0.109809	7721.155273
5974.541214	0.085723	0.109809	7811.506836
5974.542141	0.085562	0.109809	7890.822266
5974.543003	0.085580	0.109809	7964.592285
5974.544022	0.085584	0.109809	8051.801758
5974.545047	0.085540	0.109809	8139.479980
5974.545935	0.085576	0.109809	8215.471680
5975.572412	1.098677	0.102651	466.937592
5975.573381	1.620579	0.102651	2037.278320
5975.574310	1.609570	0.102651	3532.569336
5975.575184	1.568408	0.102651	4903.358398
5975.576101	1.525280	0.102651	6302.039551
5975.577069	1.034341	0.102651	7303.281250
5975.577992	0.110131	0.102651	7404.931641
5975.578870	0.085496	0.102651	7479.996582
5975.579801	0.085562	0.102651	7559.654297
5975.580735	0.085510	0.102651	7639.520996
5975.581619	0.085510	0.102651	7715.112305
5975.582699	0.085521	0.102651	7807.475098
5975.583640	0.085624	0.102651	7888.046875
5975.584561	0.085605	0.102651	7966.889648
5975.585419	0.085598	0.102651	8040.333008
5975.586378	0.085558	0.102651	8122.382812
5976.605113	1.096124	0.106736	464.756653
5976.606070	1.620007	0.106736	2015.103516
5976.607001	1.609666	0.106736	3513.702148
5976.607890	1.568320	0.106736	4907.938965
5976.608814	1.525939	0.106736	6317.906250
5976.609768	1.038387	0.106736	7308.527832
5976.610696	0.110281	0.106736	7410.868164
5976.611570	0.085488	0.106736	7485.584961
5976.612499	0.085620	0.106736	7565.125977
5976.613460	0.085565	0.106736	7647.354004
5976.614331	0.085616	0.106736	7721.925781
5976.615240	0.085576	0.106736	7799.714355
5976.616188	0.085594	0.106736	7880.857910
5976.617111	0.085635	0.106736	7959.898926
5976.617981	0.085594	0.106736	8034.366211
5976.618921	0.085605	0.106736	8114.835449
5977.647555	1.104141	0.109197	470.363922
5977.648539	1.621776	0.109197	2066.191650
5977.649461	1.609380	0.109197	3550.040039
5977.650336	1.567793	0.109197	4921.858887
5977.651263	1.524924	0.109197	6335.463867
5977.652213	1.005319	0.109197	7290.516602
5977.653163	0.105363	0.109197	7390.610840
5977.654057	0.085605	0.109197	7467.142090
5977.654970	0.085602	0.109197	7545.296387
5977.655917	0.085569	0.109197	7626.330078
5977.656835	0.085616	0.109197	7704.925781
5977.657700	0.085594	0.109197	7778.964844
5977.658665	0.085569	0.109197	7861.538574
5977.659599	0.085569	0.109197	7941.459961
5977.660507	0.085594	0.109197	8019.179687
5977.661367	0.085558	0.109197	8092.759277
5978.680879	1.183879	0.112577	642.846497
5978.681831	1.626097	0.112577	2190.891357
5978.682755	1.605399	0.112577	3674.280273
5978.683622	1.563816	0.112577	5030.108398
5978.684658	1.516677	0.112577	6601.385742
5978.685551	0.852784	0.112577	7362.922363
5978.686416	0.098844	0.112577	7448.422363
5978.687359	0.085580	0.112577	7529.124023
5978.688323	0.085547	0.112577	7611.591309
5978.689231	0.085562	0.112577	7689.281250
5978.690108	0.085631	0.112577	7764.379883
5978.691127	0.085660	0.112577	7851.667969
5978.692033	0.085543	0.112577	7929.169922
5978.692910	0.085591	0.112577	8004.232910
5978.693766	0.085660	0.112577	8077.558105
5978.694820	0.085554	0.112577	8167.732422
5979.722685	1.086987	0.113205	461.969574
5979.723694	1.617678	0.113205	2094.206787
5979.724713	1.603674	0.113205	3728.351074
5979.725604	1.561622	0.113205	5119.756348
5979.726466	1.520083	0.113205	6430.067871
5979.727534	0.757394	0.113205	7238.964355
5979.728456	0.091483	0.113205	7323.312012
5979.729333	0.085518	0.113205	7398.311035
5979.730310	0.085701	0.113205	7482.040527
5979.731317	0.085573	0.113205	7568.211914
5979.732210	0.085646	0.113205	7644.693359
5979.733070	0.085638	0.113205	7718.342285
5979.734131	0.085649	0.113205	7809.216309
5979.735069	0.085525	0.113205	7889.438477
5979.735945	0.085573	0.113205	7964.399902
5979.736913	0.085642	0.113205	8047.301270
5980.754904	1.116449	0.112049	494.586914
5980.755771	1.617026	0.112049	1896.548706
5980.756838	1.606586	0.112049	3610.775391
5980.757863	1.558890	0.112049	5208.637695
5980.758741	1.517637	0.112049	6541.122559
5980.759720	0.812175	0.112049	7336.242187
5980.760772	0.090029	0.112049	7430.953125
5980.761676	0.085613	0.112049	7508.347168
5980.762546	0.085573	0.112049	7582.795410
5980.763608	0.085649	0.112049	7673.754883
5980.764606	0.085620	0.112049	7759.203613
5980.765495	0.085594	0.112049	7835.296875
5980.766455	0.085697	0.112049	7917.565918
5980.767512	0.085649	0.112049	8008.097168
5980.768415	0.085616	0.112049	8085.408691
5980.769277	0.085576	0.112049	8159.175293
5981.798348	1.111992	0.116174	487.052551
5981.799214	1.616147	0.116174	1886.636230
5981.800347	1.604286	0.116174	3704.291992
5981.801315	1.558861	0.116174	5213.269531
5981.802179	1.518325	0.116174	6525.102539
5981.803250	0.678084	0.116174	7251.330078
5981.804285	0.087894	0.116174	7342.300781
5981.805169	0.085613	0.116174	7417.982422
5981.806076	0.085690	0.116174	7495.703125
5981.807150	0.085653	0.116174	7587.694336
5981.808090	0.085587	0.116174	7668.146484
5981.808949	0.085616	0.116174	7741.690918
5981.809963	0.085675	0.116174	7828.565430
5981.810999	0.085598	0.116174	7917.245117
5981.811876	0.085598	0.116174	7992.314453
5981.812812	0.085734	0.116174	8072.561035
5982.829538	1.127278	0.109777	521.929626
5982.830430	1.620040	0.109777	1967.005615
5982.831297	1.613005	0.109777	3365.481445
5982.832274	1.568529	0.109777	4897.934570
5982.833229	1.524404	0.109777	6353.740723
5982.834130	1.085222	0.109777	7331.525879
5982.835057	0.126086	0.109777	7448.408203
5982.835944	0.085492	0.109777	7524.239746
5982.836878	0.085584	0.109777	7604.174805
5982.837763	0.085576	0.109777	7679.909668
5982.838665	0.085675	0.109777	7757.188477
5982.839619	0.085635	0.109777	7838.884277
5982.840541	0.085584	0.109777	7917.792480
5982.841405	0.085631	0.109777	7991.777832
5982.842342	0.085627	0.109777	8072.010742
5982.843261	0.085543	0.109777	8150.625000
