time (s)	coil I (A)	last det (V)	int current (uC)
5538.860534	1.141714	0.103130	518.338074
5538.861404	1.621527	0.103130	1929.066650
5538.862328	1.613800	0.103130	3420.217773
5538.863284	1.568694	0.103130	4919.889160
5538.864223	1.524672	0.103130	6351.555664
5538.865120	1.095439	0.103130	7334.165039
5538.866036	0.120659	0.103130	7444.688965
5538.866986	0.085492	0.103130	7525.906250
5538.867907	0.085657	0.103130	7604.795898
5538.868771	0.085675	0.103130	7678.819336
5538.869743	0.085565	0.103130	7761.988770
5538.870693	0.085602	0.103130	7843.310547
5538.871577	0.085668	0.103130	7919.041016
5538.872453	0.085543	0.103130	7993.977051
5538.873398	0.085569	0.103130	8074.839844
5538.874344	0.085543	0.103130	8155.763672
5539.904962	1.092133	0.102518	466.340607
5539.905903	1.621794	0.102518	1992.449097
5539.906861	1.610511	0.102518	3535.319092
5539.907789	1.567683	0.102518	4990.128906
5539.908651	1.526235	0.102518	6305.743652
5539.909605	1.033348	0.102518	7291.558105
5539.910556	0.109878	0.102518	7396.052246
5539.911447	0.085565	0.102518	7472.291016
5539.912354	0.085598	0.102518	7549.928711
5539.913295	0.085587	0.102518	7630.466309
5539.914230	0.085569	0.102518	7710.473145
5539.915120	0.085532	0.102518	7786.596680
5539.916050	0.085510	0.102518	7866.121094
5539.916997	0.085591	0.102518	7947.175781
5539.917915	0.085558	0.102518	8025.717773
5539.918779	0.085646	0.102518	8099.715820
5540.934111	1.126619	0.102002	503.598511
5540.934979	1.619410	0.102002	1909.246704
5540.935961	1.612515	0.102002	3492.736328
5540.936891	1.568961	0.102002	4951.870117
5540.937769	1.527433	0.102002	6292.956055
5540.938663	1.106162	0.102002	7281.864746
5540.939604	0.121245	0.102002	7395.956543
5540.940528	0.085536	0.102002	7474.991699
5540.941401	0.085609	0.102002	7549.728516
5540.942380	0.085616	0.102002	7633.546875
5540.943335	0.085584	0.102002	7715.279297
5540.944222	0.085594	0.102002	7791.201660
5540.945139	0.085558	0.102002	7869.658203
5540.946068	0.085591	0.102002	7949.171875
5540.947004	0.085594	0.102002	8029.288086
5540.947879	0.085613	0.102002	8104.199219
5541.979626	1.111483	0.106925	513.505188
5541.980524	1.622131	0.106925	1970.179199
5541.981395	1.614382	0.106925	3376.306152
5541.982354	1.569822	0.106925	4881.765137
5541.983293	1.525774	0.106925	6314.466797
5541.984227	1.068593	0.106925	7312.532227
5541.985091	0.123387	0.106925	7419.139160
5541.986072	0.085554	0.106925	7503.067871
5541.986996	0.085565	0.106925	7582.129883
5541.987851	0.085576	0.106925	7655.297363
5541.988782	0.085605	0.106925	7734.996094
5541.989715	0.085587	0.106925	7814.849121
5541.990636	0.085584	0.106925	7893.671387
5541.991495	0.085576	0.106925	7967.181152
5541.992461	0.085573	0.106925	8049.844238
5541.993406	0.085554	0.106925	8130.692871
5543.008725	1.115577	0.100339	487.507355
5543.009609	1.619729	0.100339	1919.347778
5543.010491	1.615737	0.100339	3344.427979
5543.011451	1.573004	0.100339	4854.511719
5543.012380	1.527122	0.100339	6273.208008
5543.013316	1.102665	0.100339	7305.302246
5543.014192	0.128544	0.100339	7417.906738
5543.015129	0.085529	0.100339	7498.046875
5543.016081	0.085627	0.100339	7579.563965
5543.017002	0.085620	0.100339	7658.419922
5543.017859	0.085594	0.100339	7731.774414
5543.018803	0.085587	0.100339	7812.568848
5543.019748	0.085580	0.100339	7893.441895
5543.020651	0.085605	0.100339	7970.743652
5543.021512	0.085602	0.100339	8044.446777
5543.022470	0.085565	0.100339	8126.418457
5544.053213	1.115453	0.101600	503.069244
5544.054077	1.619410	0.101600	1902.239746
5544.055046	1.611625	0.101600	3463.904053
5544.055949	1.569294	0.101600	4880.976562
5544.056872	1.526862	0.101600	6290.269531
5544.057743	1.127798	0.101600	7272.581543
5544.058728	0.119689	0.101600	7390.475098
5544.059675	0.085525	0.101600	7471.467285
5544.060558	0.085616	0.101600	7547.066406
5544.061473	0.085602	0.101600	7625.392090
5544.062424	0.085532	0.101600	7706.733398
5544.063310	0.085565	0.101600	7782.543945
5544.064168	0.085635	0.101600	7856.018555
5544.065180	0.085649	0.101600	7942.695801
5544.066098	0.085580	0.101600	8021.258301
5544.066984	0.085569	0.101600	8097.072266
5545.082322	1.105979	0.106740	489.948730
5545.083192	1.618817	0.106740	1898.319702
5545.084187	1.611903	0.106740	3502.163086
5545.085126	1.567339	0.106740	4973.894531
5545.086039	1.524635	0.106740	6365.886230
5545.086924	1.085486	0.106740	7326.541016
5545.087942	0.106051	0.106740	7434.500977
5545.088840	0.085499	0.106740	7511.279297
5545.089714	0.085635	0.106740	7586.124023
5545.090629	0.085660	0.106740	7664.503418
5545.091630	0.085616	0.106740	7750.205566
5545.092550	0.085540	0.106740	7828.901855
5545.093420	0.085569	0.106740	7903.346680
5545.094418	0.085693	0.106740	7988.868652
5545.095315	0.085591	0.106740	8065.643555
5545.096217	0.085598	0.106740	8142.853027
5546.128854	1.105990	0.107916	501.013428
5546.129746	1.621362	0.107916	1947.268677
5546.130701	1.611958	0.107916	3486.688477
5546.131669	1.566888	0.107916	5003.436523
5546.132595	1.523723	0.107916	6414.404297
5546.133471	1.058957	0.107916	7342.050781
5546.134513	0.102583	0.107916	7448.942383
5546.135391	0.085547	0.107916	7524.052734
5546.136254	0.085657	0.107916	7597.974609
5546.137169	0.085660	0.107916	7676.354004
5546.138159	0.085587	0.107916	7761.085449
5546.139084	0.085638	0.107916	7840.300781
5546.139957	0.085554	0.107916	7914.989746
5546.140934	0.085690	0.107916	7998.708496
5546.141876	0.085565	0.107916	8079.311035
5546.142794	0.085510	0.107916	8157.809570
5547.157977	1.130021	0.100871	510.769379
5547.158855	1.620348	0.100871	1933.434937
5547.159720	1.614727	0.100871	3330.173340
5547.160810	1.566145	0.100871	5037.271484
5547.161729	1.522863	0.100871	6436.782227
5547.162618	1.033649	0.100871	7355.695801
5547.163625	0.114294	0.100871	7470.790527
5547.164628	0.085518	0.100871	7556.564453
5547.165513	0.085627	0.100871	7632.344727
5547.166369	0.085668	0.100871	7705.676270
5547.167431	0.085649	0.100871	7796.635742
5547.168347	0.085518	0.100871	7874.969727
5547.169224	0.085598	0.100871	7950.039062
5547.170189	0.085627	0.100871	8032.669434
5547.171214	0.085573	0.100871	8120.381348
5547.172103	0.085616	0.100871	8196.494141
5548.203043	1.178859	0.105523	625.973938
5548.204117	1.628185	0.105523	2374.644287
5548.205030	1.602052	0.105523	3837.317871
5548.205899	1.559341	0.105523	5192.384766
5548.206994	1.510312	0.105523	6846.176758
5548.207956	0.486002	0.105523	7313.710937
5548.208830	0.087931	0.105523	7390.562500
5548.209837	0.085671	0.105523	7476.833496
5548.210872	0.085631	0.105523	7565.461914
5548.211763	0.085693	0.105523	7641.814453
5548.212621	0.085631	0.105523	7715.286133
5548.213726	0.085708	0.105523	7809.993652
5548.214690	0.085562	0.105523	7892.475098
5548.215546	0.085602	0.105523	7965.750000
5548.216616	0.085624	0.105523	8057.367676
5548.217647	0.085649	0.105523	8145.672363
5549.232597	1.114731	0.105805	502.743866
5549.233685	1.626552	0.105805	2272.431885
5549.234640	1.603191	0.105805	3803.479248
5549.235514	1.561798	0.105805	5168.490723
5549.236541	1.513685	0.105805	6723.045410
5549.237587	0.518756	0.105805	7265.664062
5549.238470	0.087733	0.105805	7343.132324
5549.239419	0.085649	0.105805	7424.413574
5549.240481	0.085602	0.105805	7515.322754
5549.241422	0.085598	0.105805	7595.870605
5549.242289	0.085671	0.105805	7670.147461
5549.243355	0.085686	0.105805	7761.488770
5549.244360	0.085587	0.105805	7847.503906
5549.245254	0.085580	0.105805	7924.012207
5549.246210	0.085638	0.105805	8005.882324
5549.247263	0.085657	0.105805	8096.079102
5550.277572	1.106477	0.105858	479.104553
5550.278442	1.617931	0.105858	1886.704346
5550.279434	1.611552	0.105858	3485.363281
5550.280367	1.568331	0.105858	4948.616211
5550.281248	1.527114	0.105858	6294.003906
5550.282172	1.100925	0.105858	7311.258789
5550.283128	0.119747	0.105858	7425.737305
5550.284055	0.085485	0.105858	7504.981445
5550.284917	0.085609	0.105858	7578.776367
5550.285845	0.085573	0.105858	7658.187500
5550.286781	0.085551	0.105858	7738.262695
5550.287671	0.085543	0.105858	7814.395996
5550.288714	0.085631	0.105858	7903.709473
5550.289677	0.085609	0.105858	7986.150879
5550.290604	0.085547	0.105858	8065.452637
5550.291469	0.085554	0.105858	8139.457031
5551.307195	1.084658	0.106240	458.810455
5551.308133	1.619169	0.106240	1977.590698
5551.309094	1.610841	0.106240	3525.608887
5551.310018	1.567855	0.106240	4974.307129
5551.310880	1.526587	0.106240	6290.225098
5551.311841	1.042932	0.106240	7292.482910
5551.312801	0.109944	0.106240	7398.028809
5551.313693	0.085558	0.106240	7474.346191
5551.314575	0.085613	0.106240	7549.856445
5551.315527	0.085646	0.106240	7631.391113
5551.316482	0.085616	0.106240	7713.154785
5551.317375	0.085598	0.106240	7789.593750
5551.318289	0.085642	0.106240	7867.870605
5551.319232	0.085620	0.106240	7948.610352
5551.320153	0.085613	0.106240	8027.459961
5551.321017	0.085642	0.106240	8101.454590
5552.352721	1.104884	0.107618	485.044098
5552.353591	1.618619	0.107618	1893.243042
5552.354518	1.613155	0.107618	3388.638184
5552.355480	1.569152	0.107618	4898.162109
5552.356411	1.525873	0.107618	6318.750000
5552.357290	1.109663	0.107618	7294.143555
5552.358259	0.120864	0.107618	7411.261230
5552.359203	0.085525	0.107618	7491.996582
5552.360094	0.085591	0.107618	7568.257812
5552.361016	0.085594	0.107618	7647.175781
5552.361925	0.085591	0.107618	7724.978027
5552.362837	0.085697	0.107618	7803.133789
5552.363699	0.085613	0.107618	7876.932129
5552.364661	0.085580	0.107618	7959.259766
5552.365608	0.085558	0.107618	8040.283203
5552.366496	0.085584	0.107618	8116.281250
5553.382344	1.097552	0.109769	479.630402
5553.383214	1.617704	0.109769	1887.032837
5553.384204	1.612236	0.109769	3483.146729
5553.385132	1.569001	0.109769	4939.180176
5553.386013	1.527356	0.109769	6284.780762
5553.386898	1.114076	0.109769	7270.737793
5553.387871	0.123307	0.109769	7390.715332
5553.388797	0.085558	0.109769	7469.941895
5553.389671	0.085598	0.109769	7544.754883
5553.390684	0.085587	0.109769	7631.454590
5553.391575	0.085551	0.109769	7707.680176
5553.392487	0.085554	0.109769	7785.705566
5553.393350	0.085554	0.109769	7859.539062
5553.394340	0.085543	0.109769	7944.227051
5553.395266	0.085554	0.109769	8023.450195
5553.396142	0.085492	0.109769	8098.341309
5554.426303	1.116757	0.106651	480.205383
5554.427338	1.626357	0.106651	2163.485352
5554.428229	1.609142	0.106651	3597.230713
5554.429101	1.568188	0.106651	4964.690918
5554.430130	1.521442	0.106651	6530.254395
5554.431045	0.906559	0.106651	7359.755859
5554.431946	0.100096	0.106651	7449.942871
5554.432819	0.085573	0.106651	7524.647461
5554.433850	0.085675	0.106651	7612.978516
5554.434744	0.085609	0.106651	7689.513184
5554.435618	0.085638	0.106651	7764.361328
5554.436589	0.085671	0.106651	7847.548340
5554.437542	0.085598	0.106651	7929.123535
5554.438461	0.085576	0.106651	8007.768066
5554.439323	0.085635	0.106651	8081.585449
5554.440360	0.085551	0.106651	8170.301270
5555.455427	1.093392	0.096222	469.065338
5555.456477	1.623757	0.096222	2174.010498
5555.457425	1.606025	0.096222	3696.522461
5555.458302	1.564728	0.096222	5068.788574
5555.459243	1.520812	0.096222	6499.872559
5555.460307	0.727870	0.096222	7274.326172
5555.461181	0.092128	0.096222	7354.845703
5555.462045	0.085540	0.096222	7428.751953
5555.463079	0.085569	0.096222	7517.229980
5555.464039	0.085598	0.096222	7599.404297
5555.464912	0.085562	0.096222	7674.099609
5555.465812	0.085616	0.096222	7751.154297
5555.466892	0.085664	0.096222	7843.671387
5555.467780	0.085594	0.096222	7919.679199
5555.468642	0.085653	0.096222	7993.512207
5555.469681	0.085697	0.096222	8082.551270
5556.501435	1.084167	0.104423	456.434509
5556.502444	1.621893	0.104423	2092.924805
5556.503488	1.603744	0.104423	3767.233398
5556.504380	1.561428	0.104423	5160.027344
5556.505316	1.517944	0.104423	6580.823242
5556.506395	0.609423	0.104423	7238.390137
5556.507338	0.087836	0.104423	7321.219238
5556.508203	0.085631	0.104423	7395.290039
5556.509251	0.085741	0.104423	7485.146484
5556.510280	0.085624	0.104423	7573.253418
5556.511166	0.085642	0.104423	7649.132324
5556.512116	0.085675	0.104423	7730.523437
5556.513165	0.085671	0.104423	7820.392578
5556.514086	0.085532	0.104423	7899.167969
5556.514948	0.085642	0.104423	7972.991211
5556.515996	0.085701	0.104423	8062.805664
5557.530570	1.098208	0.104282	482.113281
5557.531437	1.617704	0.104282	1884.662598
5557.532500	1.608322	0.104282	3594.308350
5557.533525	1.560787	0.104282	5194.115234
5557.534400	1.519321	0.104282	6523.521484
5557.535368	0.822444	0.104282	7319.646973
5557.536418	0.089996	0.104282	7414.143066
5557.537338	0.085540	0.104282	7492.839355
5557.538207	0.085576	0.104282	7567.205078
5557.539292	0.085712	0.104282	7660.202148
5557.540284	0.085627	0.104282	7745.144531
5557.541166	0.085642	0.104282	7820.680664
5557.542136	0.085649	0.104282	7903.760742
5557.543184	0.085675	0.104282	7993.548340
5557.544092	0.085576	0.104282	8071.251465
5557.544954	0.085584	0.104282	8145.024414
5558.575088	1.123879	0.102889	536.090515
5558.575982	1.621560	0.102889	1985.765137
5558.576857	1.613968	0.102889	3397.987549
5558.577752	1.572433	0.102889	4805.314941
5558.578700	1.527649	0.102889	6253.526367
5558.579654	1.128636	0.102889	7330.245605
5558.580523	0.135187	0.102889	7447.722656
5558.581434	0.085532	0.102889	7525.642578
5558.582376	0.085591	0.102889	7606.269043
5558.583264	0.085624	0.102889	7682.302734
5558.584178	0.085591	0.102889	7760.532715
5558.585101	0.085602	0.102889	7839.542969
5558.586036	0.085602	0.102889	7919.580566
5558.586922	0.085598	0.102889	7995.420410
5558.587850	0.085602	0.102889	8074.858887
5558.588795	0.085642	0.102889	8155.790527
5559.605216	1.126388	0.105878	519.264832
5559.606112	1.621663	0.105878	1972.274658
5559.607029	1.612672	0.105878	3451.095215
5559.607991	1.568108	0.105878	4959.615234
5559.608920	1.524602	0.105878	6375.970703
5559.609797	1.100603	0.105878	7341.199707
5559.610765	0.117653	0.105878	7455.087402
5559.611677	0.085444	0.105878	7533.012695
5559.612579	0.085602	0.105878	7610.225586
5559.613454	0.085551	0.105878	7685.082520
5559.614415	0.085543	0.105878	7767.289551
5559.615366	0.085554	0.105878	7848.651367
5559.616253	0.085558	0.105878	7924.541016
5559.617167	0.085613	0.105878	8002.791016
5559.618086	0.085591	0.105878	8081.449219
5559.619030	0.085573	0.105878	8162.229492
5560.649654	1.092059	0.103614	459.756958
5560.650612	1.620945	0.103614	2012.622192
5560.651538	1.610804	0.103614	3504.227051
5560.652435	1.569338	0.103614	4911.923828
5560.653350	1.526437	0.103614	6308.613281
5560.654324	1.035707	0.103614	7317.391602
5560.655239	0.110555	0.103614	7418.549805
5560.656111	0.085580	0.103614	7493.175293
5560.657080	0.085642	0.103614	7576.162598
5560.658017	0.085543	0.103614	7656.316406
5560.658941	0.085664	0.103614	7735.470215
5560.659799	0.085591	0.103614	7808.907227
5560.660755	0.085584	0.103614	7890.725098
5560.661697	0.085576	0.103614	7971.337891
5560.662589	0.085664	0.103614	8047.750000
5560.663501	0.085584	0.103614	8125.802246
5561.680326	1.102950	0.108266	479.783447
5561.681210	1.618396	0.108266	1910.445435
5561.682091	1.615477	0.108266	3333.680908
5561.683063	1.571411	0.108266	4861.092773
5561.683993	1.527217	0.108266	6281.404297
5561.684911	1.133236	0.108266	7321.714844
5561.685781	0.136593	0.108266	7440.550781
5561.686725	0.085510	0.108266	7521.272461
5561.687642	0.085594	0.108266	7599.762695
5561.688530	0.085627	0.108266	7675.799805
5561.689639	0.085627	0.108266	7770.760742
5561.690544	0.085594	0.108266	7848.223633
5561.691457	0.085587	0.108266	7926.364746
5561.692332	0.085565	0.108266	8001.234375
5561.693289	0.085551	0.108266	8083.106445
5561.694237	0.085565	0.108266	8164.222168
5562.724791	1.083959	0.111763	457.430603
5562.725768	1.617469	0.111763	2037.698242
5562.726713	1.609380	0.111763	3558.562256
5562.727632	1.566405	0.111763	4998.088379
5562.728514	1.524760	0.111763	6342.926270
5562.729545	0.911100	0.111763	7282.270020
5562.730437	0.101488	0.111763	7372.797363
5562.731309	0.085624	0.111763	7447.461426
5562.732239	0.085547	0.111763	7527.020020
5562.733238	0.085562	0.111763	7612.496094
5562.734154	0.085573	0.111763	7690.880371
5562.735025	0.085675	0.111763	7765.503418
5562.736021	0.085679	0.111763	7850.839355
5562.736923	0.085594	0.111763	7928.045410
5562.737838	0.085605	0.111763	8006.374512
5562.738702	0.085613	0.111763	8080.343750
5563.754427	1.106968	0.108738	467.140411
5563.755529	1.625552	0.108738	2258.498535
5563.756497	1.602781	0.108738	3809.990234
5563.757365	1.561655	0.108738	5165.506836
5563.758407	1.513546	0.108738	6742.622070
5563.759443	0.533998	0.108738	7295.843750
5563.760321	0.088129	0.108738	7373.220703
5563.761182	0.085455	0.108738	7446.797852
5563.762220	0.085638	0.108738	7535.690430
5563.763170	0.085569	0.108738	7616.980957
5563.764032	0.085653	0.108738	7690.813965
5563.764902	0.085649	0.108738	7765.329102
5563.765993	0.085580	0.108738	7858.696777
5563.766892	0.085507	0.108738	7935.567383
5563.767756	0.085510	0.108738	8009.448242
5563.768793	0.085664	0.108738	8098.281738
5564.798505	1.187065	0.104142	614.899841
5564.799520	1.627701	0.104142	2267.016846
5564.800401	1.605927	0.104142	3681.838135
5564.801387	1.560381	0.104142	5220.374023
5564.802438	1.511100	0.104142	6808.540039
5564.803344	0.618626	0.104142	7369.014648
5564.804201	0.090311	0.104142	7446.411621
5564.805286	0.085690	0.104142	7539.384766
5564.806262	0.085602	0.104142	7622.932129
5564.807143	0.085565	0.104142	7698.314941
5564.808125	0.085774	0.104142	7782.544922
5564.809175	0.085584	0.104142	7872.407715
5564.810080	0.085598	0.104142	7949.874023
5564.810942	0.085668	0.104142	8023.719727
5564.812042	0.085715	0.104142	8118.006836
5564.813024	0.085613	0.104142	8202.078125
5565.829586	1.108817	0.110494	488.988342
5565.830454	1.618026	0.110494	1893.434814
5565.831480	1.609720	0.110494	3545.008057
5565.832527	1.561296	0.110494	5179.685547
5565.833409	1.519416	0.110494	6519.811035
5565.834334	0.875771	0.110494	7329.899414
5565.835400	0.091553	0.110494	7427.494629
5565.836336	0.085580	0.110494	7507.597168
5565.837202	0.085605	0.110494	7581.731445
5565.838229	0.085686	0.110494	7669.730957
5565.839253	0.085631	0.110494	7757.416992
5565.840141	0.085620	0.110494	7833.447754
5565.841070	0.085576	0.110494	7912.948242
5565.842129	0.085620	0.110494	8003.620117
5565.843078	0.085492	0.110494	8084.751953
5565.843945	0.085598	0.110494	8158.965332
5566.872517	1.096728	0.103916	470.496490
5566.873466	1.617096	0.103916	2005.120483
5566.874406	1.610310	0.103916	3518.812012
5566.875336	1.566738	0.103916	4975.878906
5566.876217	1.525433	0.103916	6319.785645
5566.877143	1.041343	0.103916	7284.068848
5566.878099	0.108413	0.103916	7387.711914
5566.879021	0.085492	0.103916	7466.535645
5566.879878	0.085584	0.103916	7539.880859
5566.880853	0.085529	0.103916	7623.270996
5566.881795	0.085675	0.103916	7703.977051
5566.882685	0.085613	0.103916	7780.172363
5566.883594	0.085562	0.103916	7857.947754
5566.884502	0.085605	0.103916	7935.677734
5566.885452	0.085602	0.103916	8016.999512
5566.886344	0.085602	0.103916	8093.356445
5567.904728	1.113318	0.110482	492.086487
5567.905613	1.618901	0.110482	1924.814209
5567.906551	1.612929	0.110482	3437.741211
5567.907504	1.568540	0.110482	4932.559570
5567.908421	1.525064	0.110482	6331.042969
5567.909307	1.120833	0.110482	7324.100586
5567.910231	0.118729	0.110482	7433.806641
5567.911192	0.085507	0.110482	7515.978516
5567.912082	0.085521	0.110482	7592.092285
5567.913132	0.085584	0.110482	7681.955078
5567.914082	0.085562	0.110482	7763.238770
5567.915005	0.085649	0.110482	7842.292969
5567.915868	0.085536	0.110482	7916.110352
5567.916832	0.085605	0.110482	7998.633789
5567.917786	0.085488	0.110482	8080.189453
5567.918675	0.085565	0.110482	8156.256836
5568.947667	1.106352	0.110172	490.114136
5568.948530	1.617814	0.110172	1886.287354
5568.949458	1.612661	0.110172	3382.836914
5568.950421	1.568862	0.110172	4893.651367
5568.951341	1.526049	0.110172	6297.616211
5568.952213	1.147130	0.110172	7297.913574
5568.953192	0.121179	0.110172	7416.547852
5568.954143	0.085536	0.110172	7497.892578
5568.955032	0.085609	0.110172	7573.999023
5568.955909	0.085594	0.110172	7649.065430
5568.956861	0.085657	0.110172	7730.610840
5568.957800	0.085587	0.110172	7810.977051
5568.958672	0.085569	0.110172	7885.593262
5568.959585	0.085602	0.110172	7963.747559
5568.960543	0.085605	0.110172	8045.757812
5568.961466	0.085690	0.110172	8124.849609
5569.978294	1.089932	0.105741	456.681335
5569.979272	1.622878	0.105741	2043.856445
5569.980198	1.610343	0.105741	3535.034180
5569.981078	1.569027	0.105741	4915.778320
5569.981988	1.526349	0.105741	6304.755859
5569.982960	1.014902	0.105741	7291.241211
5569.983908	0.108896	0.105741	7394.475098
5569.984784	0.085551	0.105741	7469.417480
5569.985693	0.085605	0.105741	7547.232910
5569.986635	0.085668	0.105741	7627.932129
5569.987562	0.085675	0.105741	7707.353027
5569.988439	0.085605	0.105741	7782.429199
5569.989386	0.085642	0.105741	7863.532227
5569.990311	0.085562	0.105741	7942.676758
5569.991231	0.085620	0.105741	8021.447266
5569.992093	0.085701	0.105741	8095.321289
5571.022310	1.153773	0.108593	534.196960
5571.023236	1.622889	0.108593	2036.992432
5571.024170	1.610039	0.108593	3540.768799
5571.025037	1.568654	0.108593	4900.791504
5571.026019	1.524012	0.108593	6397.371582
5571.026968	0.996639	0.108593	7343.182617
5571.027840	0.111233	0.108593	7440.177734
5571.028729	0.085492	0.108593	7516.180176
5571.029673	0.085532	0.108593	7596.922363
5571.030620	0.085554	0.108593	7677.942383
5571.031507	0.085602	0.108593	7753.871094
5571.032414	0.085573	0.108593	7831.485352
5571.033383	0.085576	0.108593	7914.408691
5571.034299	0.085547	0.108593	7992.769531
5571.035160	0.085569	0.108593	8066.444336
5571.036124	0.085540	0.108593	8148.904297
5572.052929	1.090983	0.105322	468.031525
5572.053796	1.616565	0.105322	1869.593262
5572.054659	1.616268	0.105322	3264.432617
5572.055647	1.571580	0.105322	4817.153320
5572.056574	1.528389	0.105322	6233.969727
5572.057462	1.205200	0.105322	7304.187500
5572.058333	0.152787	0.105322	7437.264648
5572.059325	0.085510	0.105322	7522.090820
5572.060247	0.085653	0.105322	7601.062988
5572.061106	0.085591	0.105322	7674.585449
5572.062128	0.085657	0.105322	7762.126465
5572.063005	0.085616	0.105322	7837.211914
5572.063911	0.085631	0.105322	7914.793457
5572.064788	0.085540	0.105322	7989.811523
5572.065767	0.085616	0.105322	8073.629883
5572.066693	0.085536	0.105322	8152.835937
5573.096427	1.153213	0.106486	538.550415
5573.097306	1.620571	0.106486	1963.032593
5573.098332	1.608651	0.106486	3613.508789
5573.099231	1.565145	0.106486	5020.574219
5573.100152	1.522921	0.106486	6423.184570
5573.101022	1.013580	0.106486	7304.999512
5573.102046	0.099060	0.106486	7406.437012
5573.102943	0.085463	0.106486	7483.097168
5573.103821	0.085638	0.106486	7558.287598
5573.104781	0.085675	0.106486	7640.535645
5573.105731	0.085551	0.106486	7721.808594
5573.106656	0.085620	0.106486	7801.007324
5573.107518	0.085503	0.106486	7874.710937
5573.108533	0.085631	0.106486	7961.626465
5573.109410	0.085558	0.106486	8036.660645
5573.110277	0.085573	0.106486	8110.852051
5574.127688	1.231223	0.105032	696.872253
5574.128673	1.628207	0.105032	2300.655762
5574.129607	1.602924	0.105032	3797.786377
5574.130475	1.560073	0.105032	5151.929687
5574.131575	1.511499	0.105032	6814.578613
5574.132470	0.641884	0.105032	7389.064453
5574.133337	0.090608	0.105032	7467.621582
5574.134351	0.085565	0.105032	7554.384766
5574.135332	0.085565	0.105032	7638.324219
5574.136203	0.085518	0.105032	7712.810059
5574.137065	0.085616	0.105032	7786.611328
5574.138149	0.085558	0.105032	7879.355957
5574.139074	0.085558	0.105032	7958.497070
5574.139946	0.085591	0.105032	8033.132324
5574.140917	0.085701	0.105032	8116.347656
5574.141922	0.085668	0.105032	8202.443359
5575.171073	1.158937	0.106430	573.673706
5575.172034	1.625808	0.106430	2136.075195
5575.172901	1.609966	0.106430	3531.915527
5575.173951	1.560809	0.106430	5170.765137
5575.174992	1.512642	0.106430	6745.424805
5575.175891	0.694750	0.106430	7370.004883
5575.176833	0.092142	0.106430	7456.802734
5575.177885	0.085565	0.106430	7546.817383
5575.178814	0.085554	0.106430	7626.297363
5575.179676	0.085576	0.106430	7700.063965
5575.180728	0.085671	0.106430	7790.190430
5575.181741	0.085584	0.106430	7876.886719
5575.182624	0.085499	0.106430	7952.382812
5575.183601	0.085657	0.106430	8036.069336
5575.184645	0.085624	0.106430	8125.460449
5575.185559	0.085562	0.106430	8203.664062
5576.202166	1.087207	0.104895	457.714172
5576.203141	1.621029	0.104895	2038.217529
5576.204070	1.610164	0.104895	3534.059570
5576.204961	1.568302	0.104895	4931.416504
5576.205880	1.526067	0.104895	6333.872070
5576.206849	1.026178	0.104895	7328.238281
5576.207771	0.110240	0.104895	7429.879883
5576.208629	0.085536	0.104895	7503.269531
5576.209633	0.085525	0.104895	7589.136719
5576.210572	0.085540	0.104895	7669.458496
5576.211484	0.085587	0.104895	7747.514160
5576.212356	0.085584	0.104895	7822.143066
5576.213322	0.085573	0.104895	7904.806152
5576.214271	0.085598	0.104895	7986.038574
5576.215161	0.085616	0.104895	8062.237305
5576.216054	0.085540	0.104895	8138.624023
5577.246198	1.146295	0.107570	541.051331
5577.247100	1.621827	0.107570	2003.939697
5577.247985	1.612661	0.107570	3431.144775
5577.248929	1.569111	0.107570	4912.385742
5577.249890	1.524170	0.107570	6377.113281
5577.250824	1.021747	0.107570	7331.424805
5577.251682	0.116052	0.107570	7430.997559
5577.252628	0.085540	0.107570	7511.917969
5577.253562	0.085591	0.107570	7591.859863
5577.254477	0.085551	0.107570	7670.138672
5577.255337	0.085510	0.107570	7743.677734
5577.256300	0.085627	0.107570	7826.136719
5577.257241	0.085584	0.107570	7906.670898
5577.258128	0.085569	0.107570	7982.570312
5577.259049	0.085613	0.107570	8061.419922
5577.260000	0.085624	0.107570	8142.848145
5578.276827	1.115808	0.105837	499.881989
5578.277694	1.618528	0.105837	1903.145508
5578.278611	1.613514	0.105837	3382.738281
5578.279569	1.569390	0.105837	4886.213867
5578.280493	1.526089	0.105837	6296.319824
5578.281377	1.151027	0.105837	7313.827148
5578.282305	0.123109	0.105837	7428.072266
5578.283257	0.085488	0.105837	7509.457031
5578.284179	0.085609	0.105837	7588.388672
5578.285042	0.085686	0.105837	7662.335937
5578.286019	0.085649	0.105837	7746.015625
5578.286946	0.085664	0.105837	7825.426270
5578.287805	0.085646	0.105837	7898.996094
5578.288732	0.085616	0.105837	7978.362305
5578.289673	0.085631	0.105837	8058.941406
5578.290589	0.085598	0.105837	8137.349121
5579.321276	1.096403	0.112109	465.971130
5579.322244	1.620912	0.112109	2035.013916
5579.323183	1.609607	0.112109	3546.434814
5579.324068	1.568298	0.112109	4934.378906
5579.324998	1.525561	0.112109	6353.150879
5579.325957	1.028199	0.112109	7339.194336
5579.326864	0.110310	0.112109	7439.245605
5579.327737	0.085576	0.112109	7513.953613
5579.328648	0.085540	0.112109	7591.880371
5579.329609	0.085584	0.112109	7674.125977
5579.330530	0.085569	0.112109	7752.935059
5579.331389	0.085620	0.112109	7826.482910
5579.332352	0.085602	0.112109	7908.917480
5579.333298	0.085514	0.112109	7989.813477
5579.334191	0.085569	0.112109	8066.226562
5579.335115	0.085543	0.112109	8145.268555
5580.352001	1.132354	0.111429	550.323853
5580.352915	1.623036	0.111429	2033.778687
5580.353802	1.611090	0.111429	3462.815430
5580.354711	1.569298	0.111429	4889.307617
5580.355669	1.524591	0.111429	6349.865723
5580.356599	1.043705	0.111429	7320.511230
5580.357474	0.115939	0.111429	7421.957520
5580.358466	0.085499	0.111429	7506.772949
5580.359429	0.085587	0.111429	7589.193359
5580.360320	0.085594	0.111429	7665.458008
5580.361425	0.085638	0.111429	7760.088379
5580.362375	0.085558	0.111429	7841.368164
5580.363292	0.085584	0.111429	7919.848145
5580.364154	0.085547	0.111429	7993.589355
5580.365106	0.085569	0.111429	8075.050781
5580.366034	0.085569	0.111429	8154.458496
5581.394447	1.162515	0.106917	594.044983
5581.395353	1.623310	0.106917	2064.764160
5581.396280	1.609292	0.106917	3556.577881
5581.397149	1.567562	0.106917	4918.789551
5581.398138	1.522720	0.106917	6424.759277
5581.399047	0.992380	0.106917	7326.833008
5581.399929	0.110138	0.106917	7423.974609
5581.400827	0.085466	0.106917	7500.723145
5581.401780	0.085613	0.106917	7582.312012
5581.402722	0.085576	0.106917	7662.924805
5581.403607	0.085631	0.106917	7738.708496
5581.404519	0.085580	0.106917	7816.757324
5581.405467	0.085591	0.106917	7897.897461
5581.406387	0.085594	0.106917	7976.644531
5581.407253	0.085657	0.106917	8050.823242
5581.408197	0.085609	0.106917	8131.638184
5582.426040	1.082871	0.112746	459.137329
5582.426908	1.615778	0.112746	1861.632324
5582.427852	1.612639	0.112746	3383.963623
5582.428812	1.568416	0.112746	4889.642578
5582.429746	1.525309	0.112746	6314.281250
5582.430615	1.119902	0.112746	7287.476562
5582.431592	0.122054	0.112746	7406.723633
5582.432541	0.085510	0.112746	7487.873047
5582.433433	0.085518	0.112746	7564.154785
5582.434358	0.085525	0.112746	7643.265137
5582.435267	0.085554	0.112746	7721.033691
5582.436194	0.085503	0.112746	7800.294922
5582.437082	0.085547	0.112746	7876.260742
5582.437992	0.085529	0.112746	7954.091797
5582.438947	0.085576	0.112746	8035.816895
5582.439838	0.085529	0.112746	8112.022949
5583.469029	1.133947	0.108089	529.553040
5583.469917	1.620765	0.108089	1968.792725
5583.470783	1.613390	0.108089	3365.988281
5583.471759	1.569086	0.108089	4897.416016
5583.472716	1.524770	0.108089	6356.621094
5583.473613	1.091041	0.108089	7335.285156
5583.474532	0.126929	0.108089	7451.932617
5583.475455	0.085481	0.108089	7530.831543
5583.476380	0.085576	0.108089	7609.989258
5583.477271	0.085616	0.108089	7686.273437
5583.478182	0.085613	0.108089	7764.266602
5583.479137	0.085616	0.108089	7846.030273
5583.480053	0.085576	0.108089	7924.417969
5583.480923	0.085573	0.108089	7998.866211
5583.481872	0.085591	0.108089	8080.091797
5583.482800	0.085624	0.108089	8159.550781
5584.501176	1.092539	0.112017	459.958954
5584.502160	1.621520	0.112017	2055.534424
5584.503093	1.609149	0.112017	3556.870605
5584.503981	1.567511	0.112017	4948.820312
5584.504895	1.525133	0.112017	6342.791992
5584.505867	1.005608	0.112017	7320.243164
5584.506790	0.107263	0.112017	7419.247070
5584.507652	0.085540	0.112017	7492.981934
5584.508625	0.085507	0.112017	7576.179687
5584.509551	0.085690	0.112017	7655.528320
5584.510462	0.085605	0.112017	7733.515137
5584.511342	0.085646	0.112017	7808.883301
5584.512299	0.085591	0.112017	7890.793945
5584.513243	0.085649	0.112017	7971.646973
5584.514134	0.085638	0.112017	8047.950684
5584.515023	0.085697	0.112017	8124.135254
5585.544119	1.090481	0.110857	461.273437
5585.545104	1.621355	0.110857	2058.308105
5585.546039	1.609307	0.110857	3563.009766
5585.546916	1.567965	0.110857	4938.115234
5585.547831	1.526114	0.110857	6334.509766
5585.548780	1.037388	0.110857	7318.990723
5585.549712	0.111006	0.110857	7422.448242
5585.550587	0.085547	0.110857	7497.301758
5585.551492	0.085587	0.110857	7574.758301
5585.552445	0.085594	0.110857	7656.330078
5585.553371	0.085573	0.110857	7735.570312
5585.554244	0.085642	0.110857	7810.335937
5585.555220	0.085594	0.110857	7893.875977
5585.556134	0.085587	0.110857	7972.102539
5585.557051	0.085609	0.110857	8050.605957
5585.557909	0.085554	0.110857	8124.011230
5586.575334	1.133866	0.108480	531.783142
5586.576221	1.620633	0.108480	1969.285156
5586.577088	1.613024	0.108480	3367.776855
5586.578058	1.569492	0.108480	4890.184570
5586.579007	1.525320	0.108480	6337.712891
5586.579911	1.098732	0.108480	7330.966309
5586.580848	0.127126	0.108480	7450.083984
5586.581748	0.085481	0.108480	7527.016602
5586.582695	0.085565	0.108480	7608.046875
5586.583582	0.085627	0.108480	7683.998535
5586.584493	0.085562	0.108480	7761.945312
5586.585452	0.085620	0.108480	7844.055176
5586.586344	0.085635	0.108480	7920.441406
5586.587247	0.085679	0.108480	7997.809082
5586.588179	0.085620	0.108480	8077.606934
5586.589113	0.085598	0.108480	8157.555664
5587.619272	1.102368	0.113495	472.915985
5587.620208	1.616953	0.113495	1986.384033
5587.621124	1.610804	0.113495	3461.880859
5587.622058	1.567855	0.113495	4926.257812
5587.622934	1.526858	0.113495	6263.785156
5587.623882	1.061356	0.113495	7269.950684
5587.624829	0.114705	0.113495	7378.576172
5587.625747	0.085474	0.113495	7457.041016
5587.626625	0.085613	0.113495	7532.208984
5587.627584	0.085668	0.113495	7614.364258
5587.628510	0.085554	0.113495	7693.587402
5587.629418	0.085591	0.113495	7771.303711
5587.630283	0.085613	0.113495	7845.358887
5587.631244	0.085569	0.113495	7927.590332
5587.632172	0.085576	0.113495	8007.004883
5587.633032	0.085631	0.113495	8080.647461
5588.649401	1.108286	0.110095	468.805023
5588.650478	1.626625	0.110095	2220.679687
5588.651375	1.606337	0.110095	3661.563477
5588.652255	1.565197	0.110095	5038.936523
5588.653267	1.518995	0.110095	6576.159668
5588.654204	0.827472	0.110095	7351.500977
5588.655124	0.095493	0.110095	7439.354492
5588.655983	0.085616	0.110095	7512.898926
5588.657015	0.085536	0.110095	7601.171875
5588.657904	0.085594	0.110095	7677.265137
5588.658778	0.085591	0.110095	7752.071289
5588.659722	0.085594	0.110095	7832.872559
5588.660681	0.085605	0.110095	7914.968262
5588.661588	0.085554	0.110095	7992.565918
5588.662458	0.085565	0.110095	8067.007812
5588.663543	0.085638	0.110095	8159.925293
5589.693458	1.160687	0.108907	574.540161
5589.694355	1.622043	0.108907	2029.513062
5589.695236	1.611625	0.108907	3449.354492
5589.696280	1.563175	0.108907	5081.309570
5589.697240	1.518439	0.108907	6539.010742
5589.698109	0.940708	0.108907	7356.485840
5589.698983	0.106564	0.108907	7449.622559
5589.700086	0.085609	0.108907	7544.049316
5589.700979	0.085591	0.108907	7620.481934
5589.701842	0.085653	0.108907	7694.400391
5589.702859	0.085627	0.108907	7781.483398
5589.703834	0.085609	0.108907	7864.952148
5589.704713	0.085573	0.108907	7940.170410
5589.705571	0.085653	0.108907	8013.660645
5589.706678	0.085598	0.108907	8108.417969
5589.707566	0.085602	0.108907	8184.432617
5590.724038	1.101954	0.111155	477.146240
5590.724906	1.616177	0.111155	1879.987793
5590.726000	1.606179	0.111155	3637.147705
5590.727004	1.558660	0.111155	5202.041992
5590.727903	1.517373	0.111155	6566.160156
5590.728900	0.733916	0.111155	7297.874512
5590.729945	0.088557	0.111155	7390.416504
5590.730844	0.085591	0.111155	7467.362793
5590.731705	0.085638	0.111155	7541.097656
5590.732818	0.085679	0.111155	7636.458008
5590.733783	0.085594	0.111155	7719.056641
5590.734646	0.085565	0.111155	7792.899414
5590.735693	0.085814	0.111155	7882.747070
5590.736707	0.085660	0.111155	7969.606934
5590.737587	0.085613	0.111155	8044.946289
5590.738483	0.085686	0.111155	8121.721191
5591.768573	1.159116	0.111727	554.057556
5591.769459	1.620978	0.111727	1990.243896
5591.770327	1.613042	0.111727	3390.364258
5591.771242	1.570181	0.111727	4827.079590
5591.772212	1.525283	0.111727	6306.604492
5591.773152	1.069526	0.111727	7311.958984
5591.774028	0.120959	0.111727	7417.919434
5591.774999	0.085499	0.111727	7500.939453
5591.775913	0.085565	0.111727	7579.145996
5591.776832	0.085602	0.111727	7657.813965
5591.777691	0.085547	0.111727	7731.298828
5591.778659	0.085510	0.111727	7814.072754
5591.779606	0.085627	0.111727	7895.162109
5591.780488	0.085635	0.111727	7970.691895
5591.781400	0.085580	0.111727	8048.740723
5591.782360	0.085609	0.111727	8130.925293
5592.798706	1.127662	0.113040	527.745972
5592.799600	1.620762	0.113040	1976.707031
5592.800524	1.612020	0.113040	3466.213867
5592.801439	1.567603	0.113040	4900.570312
5592.802385	1.523610	0.113040	6341.905273
5592.803285	1.087654	0.113040	7320.793945
5592.804198	0.122216	0.113040	7432.376953
5592.805150	0.085547	0.113040	7513.817383
5592.806063	0.085627	0.113040	7591.995117
5592.806935	0.085507	0.113040	7666.556641
5592.807885	0.085573	0.113040	7747.850586
5592.808819	0.085452	0.113040	7827.662598
5592.809741	0.085657	0.113040	7906.638184
5592.810598	0.085481	0.113040	7979.895508
5592.811569	0.085477	0.113040	8062.894043
5592.812497	0.085562	0.113040	8142.294922
5593.842121	1.100446	0.108915	480.894684
5593.842993	1.617283	0.108915	1891.165161
5593.843975	1.611218	0.108915	3473.381348
5593.844900	1.568082	0.108915	4923.857422
5593.845782	1.526708	0.108915	6270.413574
5593.846709	1.121591	0.108915	7310.127930
5593.847650	0.121490	0.108915	7424.450684
5593.848554	0.085551	0.108915	7501.788574
5593.849447	0.085653	0.108915	7578.276855
5593.850351	0.085558	0.108915	7655.621094
5593.851305	0.085649	0.108915	7737.330566
5593.852224	0.085584	0.108915	7815.981934
5593.853094	0.085631	0.108915	7890.480957
5593.854068	0.085602	0.108915	7973.856934
5593.854977	0.085602	0.108915	8051.668945
5593.855898	0.085627	0.108915	8130.531738
5594.872904	1.219834	0.109535	673.348328
5594.873793	1.624867	0.109535	2117.854980
5594.874666	1.609871	0.109535	3523.271973
5594.875539	1.567211	0.109535	4891.446777
5594.876593	1.520167	0.109535	6493.703125
5594.877474	0.970342	0.109535	7348.574219
5594.878347	0.109021	0.109535	7443.749512
5594.879326	0.085587	0.109535	7527.539551
5594.880263	0.085594	0.109535	7607.741699
5594.881179	0.085653	0.109535	7686.199707
5594.882041	0.085613	0.109535	7759.998047
5594.883069	0.085525	0.109535	7847.917480
5594.883959	0.085580	0.109535	7924.083496
5594.884831	0.085712	0.109535	7998.824219
5594.885791	0.085770	0.109535	8081.163574
5594.886768	0.085594	0.109535	8164.789551
5595.917254	1.100859	0.110132	476.672058
5595.918122	1.616506	0.110132	1879.799561
5595.919203	1.607087	0.110132	3617.061035
5595.920143	1.562787	0.110132	5086.080566
5595.921026	1.521658	0.110132	6429.704102
5595.922009	0.891804	0.110132	7306.347656
5595.923015	0.093219	0.110132	7400.125977
5595.923892	0.085558	0.110132	7475.160156
5595.924747	0.085624	0.110132	7548.368652
5595.925806	0.085712	0.110132	7639.137207
5595.926722	0.085631	0.110132	7717.575195
5595.927595	0.085624	0.110132	7792.324707
5595.928537	0.085679	0.110132	7873.034180
5595.929577	0.085591	0.110132	7962.048828
5595.930466	0.085609	0.110132	8038.155273
5595.931331	0.085584	0.110132	8112.185059
5596.948512	1.193606	0.118619	612.319885
5596.949540	1.627086	0.118619	2284.964355
5596.950435	1.604213	0.118619	3720.734619
5596.951396	1.559652	0.118619	5219.560547
5596.952460	1.509364	0.118619	6825.523926
5596.953398	0.549917	0.118619	7341.346191
5596.954259	0.088986	0.118619	7417.962891
5596.955338	0.085708	0.118619	7510.441895
5596.956335	0.085562	0.118619	7595.746582
5596.957221	0.085551	0.118619	7671.544434
5596.958216	0.085704	0.118619	7756.820312
5596.959256	0.085613	0.118619	7845.857422
5596.960153	0.085646	0.118619	7922.681641
5596.961013	0.085591	0.118619	7996.289551
5596.962102	0.085598	0.118619	8089.505859
5596.963093	0.085507	0.118619	8174.242676
5597.991914	1.153308	0.113644	533.981689
5597.992803	1.620670	0.113644	1974.757446
5597.993672	1.612683	0.113644	3376.179199
5597.994656	1.567837	0.113644	4918.930664
5597.995604	1.524031	0.113644	6363.711914
5597.996499	1.090279	0.113644	7339.512207
5597.997406	0.125511	0.113644	7453.351074
5597.998358	0.085543	0.113644	7534.788086
5597.999282	0.085521	0.113644	7613.809570
5598.000145	0.085569	0.113644	7687.655273
5598.001091	0.085558	0.113644	7768.592773
5598.001997	0.085565	0.113644	7846.114746
5598.002918	0.085602	0.113644	7924.954102
5598.003793	0.085558	0.113644	7999.817383
5598.004877	0.085609	0.113644	8092.617676
5598.005925	0.085638	0.113644	8182.366699
5599.022521	1.083248	0.116049	457.130768
5599.023443	1.616503	0.116049	1947.546143
5599.024409	1.610779	0.116049	3503.558594
5599.025335	1.567368	0.116049	4954.941406
5599.026203	1.526437	0.116049	6279.888672
5599.027175	1.039420	0.116049	7290.205078
5599.028114	0.110790	0.116049	7394.236816
5599.029030	0.085536	0.116049	7472.587891
5599.029896	0.085554	0.116049	7546.677734
5599.030843	0.085551	0.116049	7627.694336
5599.031797	0.085587	0.116049	7709.344727
5599.032685	0.085631	0.116049	7785.385254
5599.033598	0.085565	0.116049	7863.506348
5599.034512	0.085613	0.116049	7941.756348
5599.035445	0.085679	0.116049	8021.694824
5599.036327	0.085551	0.116049	8097.150391
5600.066557	1.130288	0.115099	541.408020
5600.067492	1.623472	0.115099	2059.354004
5600.068417	1.608728	0.115099	3547.427490
5600.069286	1.566863	0.115099	4909.031250
5600.070259	1.522467	0.115099	6390.391602
5600.071219	0.957539	0.115099	7309.628906
5600.072088	0.106370	0.115099	7402.063965
5600.072999	0.085551	0.115099	7480.000488
5600.073955	0.085576	0.115099	7561.811523
5600.074878	0.085499	0.115099	7640.727539
5600.075754	0.085598	0.115099	7715.711426
5600.076679	0.085562	0.115099	7794.855957
5600.077636	0.085591	0.115099	7876.766602
5600.078557	0.085594	0.115099	7955.599121
5600.079417	0.085594	0.115099	8029.210449
5600.080391	0.085613	0.115099	8112.597168
5601.097193	1.123575	0.114861	520.215454
5601.098083	1.620505	0.114861	1962.465332
5601.098952	1.613361	0.114861	3364.475586
5601.099909	1.570023	0.114861	4866.987793
5601.100858	1.525287	0.114861	6314.485352
5601.101765	1.107927	0.114861	7319.375488
5601.102623	0.130657	0.114861	7431.479004
5601.103592	0.085609	0.114861	7514.434082
5601.104538	0.085562	0.114861	7595.375488
5601.105429	0.085602	0.114861	7671.646484
5601.106355	0.085609	0.114861	7750.920410
5601.107306	0.085587	0.114861	7832.313965
5601.108174	0.085649	0.114861	7906.657715
5601.109056	0.085536	0.114861	7982.100586
5601.110009	0.085638	0.114861	8063.713867
5601.110963	0.085558	0.114861	8145.335937
5602.141630	1.095934	0.116625	466.867798
5602.142609	1.622886	0.116625	2055.672852
5602.143535	1.608981	0.116625	3545.588867
5602.144468	1.566020	0.116625	5006.686035
5602.145329	1.524401	0.116625	6319.194824
5602.146288	1.017250	0.116625	7294.737305
5602.147239	0.107750	0.116625	7397.208008
5602.148125	0.085584	0.116625	7473.035156
5602.149039	0.085649	0.116625	7551.318848
5602.149976	0.085602	0.116625	7631.527832
5602.150880	0.085627	0.116625	7708.935059
5602.151742	0.085602	0.116625	7782.723633
5602.152767	0.085602	0.116625	7870.465332
5602.153694	0.085613	0.116625	7949.828613
5602.154572	0.085635	0.116625	8025.016113
5602.155492	0.085558	0.116625	8103.729492
5603.171364	1.189453	0.110724	629.220703
5603.172372	1.627474	0.110724	2269.714844
5603.173263	1.604894	0.110724	3699.675293
5603.174130	1.562754	0.110724	5054.583008
5603.175225	1.513513	0.110724	6711.879883
5603.176147	0.692549	0.110724	7350.410156
5603.177026	0.091443	0.110724	7430.788574
5603.178015	0.085690	0.110724	7515.535645
5603.179017	0.085576	0.110724	7601.283203
5603.179907	0.085646	0.110724	7677.507812
5603.180775	0.085646	0.110724	7751.848145
5603.181767	0.085594	0.110724	7836.757812
5603.182705	0.085565	0.110724	7917.018066
5603.183620	0.085591	0.110724	7995.333496
5603.184479	0.085584	0.110724	8068.849609
5603.185499	0.085660	0.110724	8156.223145
5604.215754	1.098007	0.114760	475.436859
5604.216625	1.617257	0.114760	1884.067749
5604.217645	1.608746	0.114760	3524.989258
5604.218695	1.560546	0.114760	5163.562012
5604.219588	1.518366	0.114760	6519.462402
5604.220528	0.856267	0.114760	7324.353516
5604.221590	0.090245	0.114760	7420.193848
5604.222531	0.085562	0.114760	7500.707031
5604.223400	0.085675	0.114760	7575.158691
5604.224427	0.085712	0.114760	7663.184570
5604.225446	0.085562	0.114760	7750.371582
5604.226339	0.085598	0.114760	7826.810547
5604.227288	0.085664	0.114760	7908.105957
5604.228332	0.085635	0.114760	7997.508789
5604.229264	0.085594	0.114760	8077.282715
5604.230124	0.085657	0.114760	8150.947266
5605.245902	1.106158	0.106869	492.240540
5605.246768	1.616942	0.106869	1892.512451
5605.247841	1.606267	0.106869	3616.037109
5605.248855	1.558645	0.106869	5196.502930
5605.249750	1.517454	0.106869	6554.624023
5605.250746	0.739709	0.106869	7291.374512
5605.251801	0.088517	0.106869	7384.759766
5605.252702	0.085580	0.106869	7461.867187
5605.253566	0.085573	0.106869	7535.801758
5605.254677	0.085671	0.106869	7630.982422
5605.255641	0.085521	0.106869	7713.424805
5605.256508	0.085616	0.106869	7787.654297
5605.257556	0.085679	0.106869	7877.445801
5605.258602	0.085565	0.106869	7966.946777
5605.259492	0.085653	0.106869	8043.178223
5605.260384	0.085701	0.106869	8119.623047
5606.290395	1.107836	0.115014	491.879028
5606.291265	1.617594	0.115014	1899.185791
5606.292130	1.615254	0.115014	3296.380371
5606.293067	1.571759	0.115014	4769.118652
5606.294013	1.526832	0.115014	6213.501953
5606.294951	1.139198	0.115014	7282.069336
5606.295823	0.135740	0.115014	7400.434570
5606.296800	0.085492	0.115014	7483.959961
5606.297726	0.085576	0.115014	7563.203613
5606.298593	0.085551	0.115014	7637.375977
5606.299567	0.085576	0.115014	7720.727051
5606.300488	0.085591	0.115014	7799.556152
5606.301397	0.085547	0.115014	7877.318359
5606.302255	0.085598	0.115014	7950.761719
5606.303214	0.085620	0.115014	8032.871582
5606.304142	0.085562	0.115014	8112.272461
5607.320536	1.122883	0.116952	495.191559
5607.321415	1.617978	0.116952	1917.394531
5607.322347	1.611727	0.116952	3419.524414
5607.323309	1.567815	0.116952	4927.762695
5607.324237	1.524511	0.116952	6342.508301
5607.325107	1.118357	0.116952	7315.479004
5607.326049	0.122260	0.116952	7430.647461
5607.326997	0.085485	0.116952	7511.687012
5607.327889	0.085598	0.116952	7588.040527
5607.328801	0.085627	0.116952	7666.132812
5607.329728	0.085525	0.116952	7745.414551
5607.330643	0.085624	0.116952	7823.760254
5607.331507	0.085580	0.116952	7897.701172
5607.332477	0.085562	0.116952	7980.695801
5607.333424	0.085562	0.116952	8061.722656
5607.334308	0.085562	0.116952	8137.358887
5608.365068	1.173838	0.112915	595.135742
5608.365968	1.623095	0.112915	2055.920898
5608.366887	1.609222	0.112915	3534.796387
5608.367760	1.567515	0.112915	4903.236328
5608.368775	1.521533	0.112915	6447.592285
5608.369713	0.949662	0.112915	7338.375000
5608.370592	0.105938	0.112915	7431.494141
5608.371496	0.085514	0.112915	7508.798828
5608.372447	0.085646	0.112915	7590.248047
5608.373365	0.085576	0.112915	7668.807129
5608.374259	0.085587	0.112915	7745.322266
5608.375161	0.085558	0.112915	7822.495605
5608.376112	0.085562	0.112915	7903.864746
5608.377029	0.085565	0.112915	7982.328125
5608.377902	0.085624	0.112915	8057.077637
5608.378859	0.085580	0.112915	8138.977539
5609.395158	1.126161	0.115993	500.015411
5609.396044	1.619063	0.115993	1934.504761
5609.396920	1.614115	0.115993	3348.469482
5609.397935	1.568170	0.115993	4940.162109
5609.398861	1.523796	0.115993	6351.197754
5609.399792	1.046686	0.115993	7325.662109
5609.400654	0.119960	0.115993	7429.067383
5609.401702	0.085507	0.115993	7518.678223
5609.402588	0.085525	0.115993	7594.453125
5609.403452	0.085591	0.115993	7668.403809
5609.404412	0.085627	0.115993	7750.605957
5609.405356	0.085529	0.115993	7831.344727
5609.406266	0.085620	0.115993	7909.258789
5609.407139	0.085529	0.115993	7983.925293
5609.408166	0.085682	0.115993	8071.920898
5609.409056	0.085594	0.115993	8148.100098
5610.440121	1.103046	0.122233	465.485229
5610.441242	1.625398	0.122233	2287.556152
5610.442157	1.603370	0.122233	3754.640137
5610.443037	1.562069	0.122233	5129.260742
5610.444053	1.515608	0.122233	6669.118164
5610.445058	0.623895	0.122233	7296.132812
5610.445951	0.089572	0.122233	7376.120117
5610.446810	0.085525	0.122233	7449.585937
5610.447888	0.085635	0.122233	7541.900391
5610.448775	0.085529	0.122233	7617.764160
5610.449656	0.085594	0.122233	7693.172852
5610.450640	0.085591	0.122233	7777.394043
5610.451645	0.085536	0.122233	7863.357422
5610.452531	0.085565	0.122233	7939.167969
5610.453394	0.085543	0.122233	8012.991699
5610.454486	0.085697	0.122233	8106.572754
5611.469819	1.123975	0.114281	550.747620
5611.470896	1.625625	0.114281	2301.545654
5611.471828	1.601737	0.114281	3794.364746
5611.472695	1.560366	0.114281	5147.202148
5611.473745	1.511576	0.114281	6734.356934
5611.474776	0.497900	0.114281	7247.692383
5611.475664	0.087506	0.114281	7325.397949
5611.476621	0.085697	0.114281	7407.410156
5611.477674	0.085657	0.114281	7497.606934
5611.478594	0.085580	0.114281	7576.340332
5611.479454	0.085697	0.114281	7650.039551
5611.480526	0.085741	0.114281	7741.954102
5611.481521	0.085616	0.114281	7827.142578
5611.482411	0.085616	0.114281	7903.341309
5611.483388	0.085723	0.114281	7987.092285
5611.484430	0.085671	0.114281	8076.361816
5612.514782	1.138806	0.121979	513.601562
5612.515669	1.619846	0.121979	1950.405151
5612.516659	1.608805	0.121979	3543.122070
5612.517724	1.559531	0.121979	5204.022949
5612.518636	1.516597	0.121979	6587.159180
5612.519512	0.856589	0.121979	7337.531250
5612.520599	0.090439	0.121979	7435.838867
5612.521572	0.085602	0.121979	7519.129395
5612.522434	0.085554	0.121979	7592.876953
5612.523533	0.085697	0.121979	7687.058105
5612.524560	0.085638	0.121979	7775.008789
5612.525451	0.085587	0.121979	7851.267090
5612.526370	0.085598	0.121979	7929.931641
5612.527417	0.085686	0.121979	8019.645020
5612.528361	0.085635	0.121979	8100.484375
5612.529225	0.085642	0.121979	8174.479004
5613.544388	1.090338	0.115586	463.393707
5613.545307	1.616327	0.115586	1948.798096
5613.546275	1.610779	0.115586	3508.031982
5613.547199	1.567361	0.115586	4956.273437
5613.548068	1.526283	0.115586	6282.613281
5613.549016	1.035220	0.115586	7264.001465
5613.549969	0.110376	0.115586	7369.189941
5613.550887	0.085554	0.115586	7447.728516
5613.551761	0.085551	0.115586	7522.499512
5613.552724	0.085529	0.115586	7604.863281
5613.553681	0.085580	0.115586	7686.763184
5613.554566	0.085631	0.115586	7762.546875
5613.555435	0.085569	0.115586	7836.906250
5613.556399	0.085532	0.115586	7919.359375
5613.557337	0.085551	0.115586	7999.605957
5613.558219	0.085598	0.115586	8075.103516
5614.588927	1.144797	0.121113	550.647522
5614.589858	1.623270	0.121113	2061.912109
5614.590747	1.609944	0.121113	3493.152344
5614.591673	1.567716	0.121113	4944.857422
5614.592599	1.523232	0.121113	6355.370605
5614.593544	1.007465	0.121113	7307.424805
5614.594430	0.112083	0.121113	7406.729980
5614.595366	0.085525	0.121113	7486.781250
5614.596312	0.085605	0.121113	7567.764160
5614.597231	0.085627	0.121113	7646.455566
5614.598091	0.085613	0.121113	7720.082520
5614.599038	0.085642	0.121113	7801.185547
5614.599966	0.085558	0.121113	7880.583008
5614.600871	0.085558	0.121113	7958.012695
5614.601734	0.085584	0.121113	8031.871094
5614.602706	0.085620	0.121113	8115.093750
5615.619526	1.100676	0.121737	477.693512
5615.620402	1.616902	0.121737	1894.099365
5615.621331	1.612625	0.121737	3392.227539
5615.622296	1.568752	0.121737	4906.073730
5615.623222	1.525371	0.121737	6318.567383
5615.624089	1.150657	0.121737	7316.186523
5615.625035	0.125383	0.121737	7434.799316
5615.625964	0.085536	0.121737	7514.262207
5615.626854	0.085620	0.121737	7590.463867
5615.627886	0.085598	0.121737	7678.801270
5615.628848	0.085499	0.121737	7761.051758
5615.629769	0.085679	0.121737	7839.961914
5615.630630	0.085591	0.121737	7913.655762
5615.631590	0.085605	0.121737	7995.836914
5615.632528	0.085602	0.121737	8076.131348
5615.633421	0.085631	0.121737	8152.600098
5616.663565	1.138151	0.120815	577.042358
5616.664558	1.625973	0.120815	2191.633301
5616.665478	1.605590	0.120815	3668.775879
5616.666346	1.564365	0.120815	5026.644531
5616.667394	1.516930	0.120815	6616.387207
5616.668284	0.843864	0.120815	7367.425781
5616.669185	0.095669	0.120815	7453.623535
5616.670059	0.085543	0.120815	7528.388184
5616.671026	0.085580	0.120815	7611.144043
5616.671933	0.085609	0.120815	7688.791504
5616.672810	0.085569	0.120815	7763.835449
5616.673766	0.085682	0.120815	7845.748047
5616.674706	0.085646	0.120815	7926.254883
5616.675628	0.085638	0.120815	8005.213379
5616.676504	0.085646	0.120815	8080.239258
5616.677452	0.085638	0.120815	8161.424316
5617.693725	1.183766	0.118494	602.536865
5617.694659	1.624713	0.118494	2120.019043
5617.695532	1.609519	0.118494	3525.129395
5617.696537	1.563270	0.118494	5096.215820
5617.697559	1.515176	0.118494	6644.725586
5617.698446	0.816698	0.118494	7369.136719
5617.699301	0.097478	0.118494	7452.480469
5617.700374	0.085624	0.118494	7544.354980
5617.701283	0.085554	0.118494	7622.123535
5617.702160	0.085573	0.118494	7697.170410
5617.703123	0.085631	0.118494	7779.633301
5617.704145	0.085616	0.118494	7867.133301
5617.705036	0.085580	0.118494	7943.384766
5617.705900	0.085514	0.118494	8017.268555
5617.706951	0.085686	0.118494	8107.324707
5617.707896	0.085594	0.118494	8188.211426
5618.737641	1.136246	0.118583	523.809570
5618.738513	1.618945	0.118583	1935.529785
5618.739539	1.607805	0.118583	3585.137695
5618.740591	1.559048	0.118583	5225.255859
5618.741466	1.517314	0.118583	6552.906250
5618.742382	0.845596	0.118583	7327.471680
5618.743453	0.090443	0.118583	7424.336426
5618.744393	0.085551	0.118583	7504.753906
5618.745268	0.085624	0.118583	7579.674805
5618.746195	0.085708	0.118583	7659.125977
5618.747257	0.085514	0.118583	7749.941895
5618.748152	0.085543	0.118583	7826.502930
5618.749016	0.085576	0.118583	7900.440918
5618.750051	0.085715	0.118583	7989.156250
5618.751023	0.085562	0.118583	8072.322266
5618.751893	0.085616	0.118583	8146.808594
5619.768246	1.082102	0.119493	455.564972
5619.769227	1.616777	0.119493	2041.623413
5619.770286	1.603253	0.119493	3739.468750
5619.771202	1.559890	0.119493	5168.328125
5619.772067	1.517878	0.119493	6481.292969
5619.773184	0.653489	0.119493	7211.239746
5619.774142	0.087850	0.119493	7295.400391
5619.775023	0.085620	0.119493	7370.831543
5619.776040	0.085653	0.119493	7457.940918
5619.777075	0.085631	0.119493	7546.569336
5619.777958	0.085664	0.119493	7622.210937
5619.778823	0.085649	0.119493	7696.297852
5619.779930	0.085616	0.119493	7791.075195
5619.780883	0.085638	0.119493	7872.688477
5619.781741	0.085616	0.119493	7946.147461
5619.782783	0.085697	0.119493	8035.443848
5620.812266	1.124681	0.114502	528.600220
5620.813163	1.620524	0.114502	1982.209961
5620.814040	1.612687	0.114502	3396.536133
5620.814961	1.570646	0.114502	4843.101074
5620.815923	1.525983	0.114502	6311.096191
5620.816851	1.089448	0.114502	7322.104492
5620.817716	0.127830	0.114502	7432.677246
5620.818647	0.085474	0.114502	7512.253418
5620.819593	0.085551	0.114502	7593.184082
5620.820516	0.085642	0.114502	7672.231934
5620.821394	0.085558	0.114502	7747.351562
5620.822362	0.085547	0.114502	7830.161133
5620.823290	0.085565	0.114502	7909.565430
5620.824153	0.085598	0.114502	7983.436523
5620.825103	0.085569	0.114502	8064.727051
5620.826033	0.085565	0.114502	8144.302734
5621.842890	1.101559	0.113801	472.568726
5621.843811	1.616635	0.113801	1961.489258
5621.844742	1.610394	0.113801	3460.766113
5621.845663	1.567504	0.113801	4904.437012
5621.846569	1.525104	0.113801	6286.180664
5621.847448	1.109707	0.113801	7261.613281
5621.848412	0.120388	0.113801	7377.667480
5621.849362	0.085529	0.113801	7458.919434
5621.850250	0.085605	0.113801	7534.937012
5621.851151	0.085558	0.113801	7612.024414
5621.852108	0.085605	0.113801	7693.948730
5621.852995	0.085620	0.113801	7769.893555
5621.853904	0.085543	0.113801	7847.652344
5621.854827	0.085686	0.113801	7926.740723
5621.855756	0.085620	0.113801	8006.281738
5621.856631	0.085660	0.113801	8081.234375
5622.887362	1.090496	0.120525	470.003601
5622.888243	1.616470	0.120525	1894.113525
5622.889118	1.615031	0.120525	3307.265137
5622.890051	1.573096	0.120525	4774.963379
5622.890989	1.527828	0.120525	6208.066406
5622.891915	1.165591	0.120525	7287.403320
5622.892786	0.144353	0.120525	7413.134766
5622.893726	0.085518	0.120525	7493.521484
5622.894670	0.085635	0.120525	7574.360840
5622.895590	0.085642	0.120525	7653.151367
5622.896464	0.085723	0.120525	7728.072754
5622.897408	0.085562	0.120525	7808.842773
5622.898340	0.085496	0.120525	7888.524902
5622.899227	0.085532	0.120525	7964.392090
5622.900347	0.085551	0.120525	8060.208496
5622.901266	0.085594	0.120525	8138.869629
5623.917514	1.112637	0.113604	486.222290
5623.918388	1.617228	0.113604	1899.679321
5623.919252	1.613632	0.113604	3293.856934
5623.920289	1.567903	0.113604	4919.771973
5623.921168	1.526539	0.113604	6261.600098
5623.922043	1.198205	0.113604	7310.029785
5623.923048	0.140603	0.113604	7451.335937
5623.923975	0.085514	0.113604	7530.607422
5623.924878	0.085591	0.113604	7607.895996
5623.925753	0.085631	0.113604	7682.823242
5623.926766	0.085598	0.113604	7769.534180
5623.927661	0.085576	0.113604	7846.125000
5623.928537	0.085584	0.113604	7921.096191
5623.929449	0.085627	0.113604	7999.188477
5623.930443	0.085602	0.113604	8084.276855
5623.931365	0.085503	0.113604	8163.110352
5624.961471	1.086438	0.115771	459.563293
5624.962453	1.616993	0.115771	2047.450928
5624.963464	1.605363	0.115771	3670.472412
5624.964352	1.563428	0.115771	5058.796387
5624.965215	1.521951	0.115771	6372.239746
5624.966297	0.806411	0.115771	7244.776367
5624.967215	0.093336	0.115771	7330.458984
5624.968081	0.085602	0.115771	7404.590332
5624.969040	0.085701	0.115771	7486.777344
5624.970063	0.085686	0.115771	7574.434082
5624.970959	0.085587	0.115771	7651.120117
5624.971822	0.085587	0.115771	7724.981934
5624.972872	0.085624	0.115771	7814.886719
5624.973823	0.085627	0.115771	7896.318359
5624.974705	0.085602	0.115771	7971.819336
5624.975630	0.085631	0.115771	8051.028320
5625.992733	1.178573	0.119203	599.893677
5625.993678	1.625090	0.119203	2135.604004
5625.994544	1.608662	0.119203	3528.705322
5625.995604	1.559722	0.119203	5182.010254
5625.996616	1.512583	0.119203	6712.744141
5625.997516	0.721428	0.119203	7362.029297
5625.998474	0.092699	0.119203	7450.834961
5625.999514	0.085551	0.119203	7539.807617
5626.000432	0.085584	0.119203	7618.373047
5626.001290	0.085620	0.119203	7691.834961
5626.002333	0.085719	0.119203	7781.239746
5626.003343	0.085686	0.119203	7867.782715
5626.004212	0.085675	0.119203	7942.234375
5626.005153	0.085690	0.119203	8022.868164
5626.006205	0.085697	0.119203	8113.021484
5626.007123	0.085565	0.119203	8191.570312
5627.036101	1.105796	0.118394	481.021210
5627.036976	1.616924	0.118394	1895.829590
5627.037887	1.613181	0.118394	3365.437744
5627.038848	1.569097	0.118394	4873.339844
5627.039783	1.525627	0.118394	6299.801758
5627.040652	1.158307	0.118394	7306.370605
5627.041627	0.129767	0.118394	7432.893066
5627.042585	0.085543	0.118394	7514.843262
5627.043472	0.085554	0.118394	7590.729980
5627.044352	0.085558	0.118394	7666.020996
5627.045286	0.085562	0.118394	7745.935547
5627.046224	0.085609	0.118394	7826.236816
5627.047109	0.085642	0.118394	7902.030273
5627.048018	0.085565	0.118394	7979.809082
5627.048980	0.085569	0.118394	8062.126465
5627.049895	0.085620	0.118394	8140.468750
5628.067317	1.138700	0.120891	536.327637
5628.068244	1.622205	0.120891	2040.111206
5628.069165	1.609036	0.120891	3522.032959
5628.070047	1.567595	0.120891	4904.651855
5628.071012	1.523569	0.120891	6374.895996
5628.071949	1.015214	0.120891	7326.151367
5628.072828	0.111365	0.120891	7424.041016
5628.073812	0.085518	0.120891	7508.190430
5628.074741	0.085613	0.120891	7587.724609
5628.075661	0.085682	0.120891	7666.552246
5628.076520	0.085649	0.120891	7740.125000
5628.077479	0.085635	0.120891	7822.248535
5628.078412	0.085642	0.120891	7902.152832
5628.079307	0.085646	0.120891	7978.805664
5628.080221	0.085547	0.120891	8056.995605
5628.081174	0.085638	0.120891	8138.608887
5629.110761	1.155703	0.118273	527.000610
5629.111691	1.621641	0.118273	2035.126343
5629.112565	1.611500	0.118273	3443.577637
5629.113494	1.568287	0.118273	4900.516602
5629.114437	1.523632	0.118273	6337.301270
5629.115370	1.047147	0.118273	7314.289551
5629.116245	0.118433	0.118273	7417.917969
5629.117190	0.085616	0.118273	7498.825684
5629.118128	0.085580	0.118273	7579.099609
5629.119021	0.085492	0.118273	7655.443848
5629.119901	0.085474	0.118273	7730.660645
5629.120853	0.085540	0.118273	7812.094238
5629.121780	0.085540	0.118273	7891.389648
5629.122642	0.085587	0.118273	7965.166016
5629.123620	0.085558	0.118273	8048.841797
5629.124567	0.085529	0.118273	8129.837402
5630.141370	1.085200	0.116206	460.124878
5630.142238	1.615104	0.116206	1862.034912
5630.143237	1.610328	0.116206	3470.752930
5630.144163	1.567628	0.116206	4922.376465
5630.145058	1.525496	0.116206	6287.695312
5630.145989	1.076301	0.116206	7289.731934
5630.146926	0.116045	0.116206	7398.465820
5630.147852	0.085529	0.116206	7477.665039
5630.148714	0.085657	0.116206	7551.500977
5630.149740	0.085602	0.116206	7639.328613
5630.150624	0.085624	0.116206	7715.020020
5630.151527	0.085613	0.116206	7792.328613
5630.152406	0.085657	0.116206	7867.621094
5630.153399	0.085646	0.116206	7952.667480
5630.154313	0.085521	0.116206	8030.833984
5630.155199	0.085752	0.116206	8106.810059
5631.185954	1.171655	0.125427	604.574097
5631.186842	1.622311	0.125427	2045.186035
5631.187713	1.610918	0.125427	3448.295410
5631.188608	1.567639	0.125427	4851.332520
5631.189647	1.520094	0.125427	6430.709961
5631.190559	0.968610	0.125427	7314.082031
5631.191438	0.107794	0.125427	7408.833008
5631.192427	0.085521	0.125427	7493.413574
5631.193354	0.085536	0.125427	7572.705566
5631.194270	0.085693	0.125427	7651.200684
5631.195135	0.085580	0.125427	7725.227051
5631.196173	0.085551	0.125427	7814.028320
5631.197054	0.085591	0.125427	7889.433594
5631.197923	0.085580	0.125427	7963.802246
5631.198896	0.085627	0.125427	8047.117676
5631.199844	0.085598	0.125427	8128.264648
5632.217020	1.084116	0.124629	460.749329
5632.218009	1.616913	0.124629	2059.876221
5632.219069	1.603114	0.124629	3759.177246
5632.219972	1.559886	0.124629	5167.754883
5632.220835	1.517871	0.124629	6477.677734
5632.221947	0.677585	0.124629	7231.152832
5632.222920	0.087990	0.124629	7316.766602
5632.223784	0.085543	0.124629	7390.675781
5632.224783	0.085693	0.124629	7476.283203
5632.225836	0.085660	0.124629	7566.483398
5632.226727	0.085573	0.124629	7642.728516
5632.227594	0.085719	0.124629	7717.046875
5632.228613	0.085609	0.124629	7804.282715
5632.229583	0.085602	0.124629	7887.316406
5632.230461	0.085518	0.124629	7962.400879
5632.231319	0.085605	0.124629	8035.850586
5633.259970	1.084259	0.118744	460.810089
5633.260871	1.614932	0.118744	1915.863403
5633.261964	1.604780	0.118744	3669.888184
5633.262912	1.560271	0.118744	5149.025391
5633.263781	1.519611	0.118744	6469.566895
5633.264805	0.773232	0.118744	7261.356934
5633.265846	0.089172	0.118744	7354.185547
5633.266738	0.085591	0.118744	7430.532715
5633.267606	0.085620	0.118744	7504.851074
5633.268639	0.085624	0.118744	7593.300293
5633.269591	0.085576	0.118744	7674.769043
5633.270466	0.085584	0.118744	7749.654785
5633.271368	0.085675	0.118744	7826.933594
5633.272433	0.085649	0.118744	7918.150391
5633.273311	0.085602	0.118744	7993.308594
5633.274172	0.085613	0.118744	8067.020996
5634.291740	1.183956	0.122474	601.449768
5634.292700	1.625680	0.122474	2162.102539
5634.293591	1.607270	0.122474	3594.180664
5634.294601	1.560157	0.122474	5169.939453
5634.295655	1.511404	0.122474	6762.958984
5634.296557	0.661780	0.122474	7359.884277
5634.297474	0.091014	0.122474	7443.344727
5634.298559	0.085584	0.122474	7536.202637
5634.299516	0.085602	0.122474	7618.123535
5634.300383	0.085675	0.122474	7692.403809
5634.301424	0.085704	0.122474	7781.622070
5634.302446	0.085602	0.122474	7869.106934
5634.303326	0.085605	0.122474	7944.439941
5634.304263	0.085701	0.122474	8024.741699
5634.305311	0.085631	0.122474	8114.482910
5634.306237	0.085558	0.122474	8193.709961
5635.334640	1.154725	0.122378	538.101990
5635.335534	1.620264	0.122378	1986.617676
5635.336409	1.612562	0.122378	3397.609863
5635.337415	1.566907	0.122378	4973.917969
5635.338470	1.516813	0.122378	6574.155273
5635.339421	0.792751	0.122378	7328.062012
5635.340280	0.095848	0.122378	7410.395996
5635.341327	0.085551	0.122378	7499.967285
5635.342349	0.085638	0.122378	7587.489746
5635.343223	0.085536	0.122378	7662.248047
5635.344172	0.085638	0.122378	7743.519043
5635.345232	0.085704	0.122378	7834.365723
5635.346167	0.085514	0.122378	7914.321289
5635.347033	0.085547	0.122378	7988.404785
5635.348090	0.085730	0.122378	8079.021484
5635.349101	0.085657	0.122378	8165.620605
5636.365751	1.083867	0.118672	456.308075
5636.366732	1.619890	0.118672	2045.420410
5636.367649	1.608607	0.118672	3520.513184
5636.368579	1.566105	0.118672	4976.990723
5636.369447	1.524327	0.118672	6300.106934
5636.370428	1.042430	0.118672	7322.730957
5636.371374	0.113112	0.118672	7429.734375
5636.372254	0.085525	0.118672	7504.996094
5636.373167	0.085558	0.118672	7583.110352
5636.374134	0.085565	0.118672	7665.852051
5636.375059	0.085649	0.118672	7745.077637
5636.375939	0.085580	0.118672	7820.387695
5636.376908	0.085613	0.118672	7903.346680
5636.377852	0.085635	0.118672	7984.186035
5636.378741	0.085547	0.118672	8060.237305
5636.379605	0.085558	0.118672	8134.159180
5637.408693	1.095754	0.120440	460.216827
5637.409671	1.620194	0.120440	2044.766602
5637.410578	1.609358	0.120440	3504.454102
5637.411462	1.568368	0.120440	4890.891602
5637.412381	1.525349	0.120440	6292.687500
5637.413350	1.043485	0.120440	7303.824707
5637.414280	0.109402	0.120440	7405.568359
5637.415155	0.085503	0.120440	7480.383301
5637.416118	0.085587	0.120440	7562.803711
5637.417031	0.085580	0.120440	7640.937988
5637.417955	0.085638	0.120440	7720.067871
5637.418813	0.085529	0.120440	7793.451172
5637.419782	0.085558	0.120440	7876.356934
5637.420730	0.085576	0.120440	7957.482910
5637.421606	0.085584	0.120440	8032.454102
5637.422512	0.085620	0.120440	8110.025879
5638.440387	1.089104	0.121064	466.136475
5638.441254	1.615778	0.121064	1867.015625
5638.442212	1.611321	0.121064	3410.660889
5638.443171	1.567083	0.121064	4913.493164
5638.444103	1.523859	0.121064	6333.729492
5638.444980	1.100709	0.121064	7299.051270
5638.445945	0.119491	0.121064	7414.359863
5638.446890	0.085543	0.121064	7495.198242
5638.447774	0.085543	0.121064	7570.818359
5638.448693	0.085573	0.121064	7649.459473
5638.449602	0.085532	0.121064	7727.208496
5638.450547	0.085605	0.121064	7808.105469
5638.451430	0.085613	0.121064	7883.701660
5638.452340	0.085558	0.121064	7961.559082
5638.453305	0.085609	0.121064	8044.171875
5638.454221	0.085587	0.121064	8122.569824
5639.484341	1.080264	0.127184	453.710724
5639.485312	1.618546	0.127184	2025.318970
5639.486220	1.609834	0.127184	3487.048340
5639.487137	1.567354	0.127184	4924.311523
5639.488010	1.525858	0.127184	6256.385742
5639.489011	1.036080	0.127184	7293.501953
5639.489936	0.112017	0.127184	7397.117187
5639.490802	0.085466	0.127184	7471.130859
5639.491679	0.085576	0.127184	7546.181152
5639.492653	0.085529	0.127184	7629.485840
5639.493575	0.085580	0.127184	7708.390625
5639.494438	0.085620	0.127184	7782.280762
5639.495479	0.085587	0.127184	7871.376953
5639.496375	0.085598	0.127184	7948.072754
5639.497292	0.085547	0.127184	8026.519043
5639.498155	0.085591	0.127184	8100.383789
5640.515523	1.087291	0.123627	466.447937
5640.516395	1.615719	0.123627	1875.354980
5640.517258	1.615320	0.123627	3269.375977
5640.518340	1.567148	0.123627	4965.030762
5640.519231	1.524532	0.123627	6323.389160
5640.520110	1.137074	0.123627	7322.876953
5640.520988	0.137201	0.123627	7443.339355
5640.522022	0.085503	0.123627	7531.749512
5640.522896	0.085514	0.123627	7606.488770
5640.523768	0.085551	0.123627	7681.088867
5640.524751	0.085594	0.123627	7765.228027
5640.525670	0.085562	0.123627	7843.858887
5640.526597	0.085525	0.123627	7923.140625
5640.527459	0.085565	0.123627	7996.897949
5640.528488	0.085605	0.123627	8084.985840
5640.529374	0.085496	0.123627	8160.734863
5641.558035	1.169022	0.119316	583.342102
5641.558946	1.623146	0.119316	2062.027832
5641.559822	1.610237	0.119316	3472.595215
5641.560813	1.564757	0.119316	5023.269531
5641.561836	1.516296	0.119316	6574.440430
5641.562732	0.867096	0.119316	7351.358398
5641.563594	0.100020	0.119316	7437.575195
5641.564680	0.085584	0.119316	7530.519043
5641.565605	0.085565	0.119316	7609.666992
5641.566484	0.085529	0.119316	7684.846680
5641.567465	0.085756	0.119316	7768.973145
5641.568473	0.085562	0.119316	7855.219238
5641.569348	0.085602	0.119316	7930.120605
5641.570204	0.085565	0.119316	8003.364258
5641.571289	0.085573	0.119316	8096.210449
5641.572216	0.085466	0.119316	8175.437500
5642.589619	1.084475	0.118059	454.395050
5642.590713	1.624149	0.118059	2231.214355
5642.591720	1.600283	0.118059	3842.699463
5642.592610	1.558260	0.118059	5229.551270
5642.593582	1.513260	0.118059	6700.440430
5642.594650	0.569579	0.118059	7308.750488
5642.595548	0.087993	0.118059	7387.768555
5642.596403	0.085584	0.118059	7460.942383
5642.597479	0.085664	0.118059	7553.116699
5642.598478	0.085547	0.118059	7638.578125
5642.599354	0.085547	0.118059	7713.517090
5642.600345	0.085653	0.118059	7798.399414
5642.601388	0.085587	0.118059	7887.666992
5642.602285	0.085496	0.118059	7964.356445
5642.603141	0.085620	0.118059	8037.647461
5642.604216	0.085638	0.118059	8129.708984
5643.632629	1.127798	0.119078	544.726379
5643.633560	1.622098	0.119078	2054.899902
5643.634487	1.608618	0.119078	3546.088867
5643.635359	1.567387	0.119078	4912.849609
5643.636311	1.523068	0.119078	6362.810059
5643.637242	0.991333	0.119078	7285.741211
5643.638167	0.106633	0.119078	7384.376953
5643.639042	0.085540	0.119078	7459.224121
5643.640011	0.085591	0.119078	7542.161621
5643.640948	0.085594	0.119078	7622.363770
5643.641837	0.085627	0.119078	7698.486328
5643.642750	0.085594	0.119078	7776.634277
5643.643698	0.085649	0.119078	7857.830078
5643.644624	0.085584	0.119078	7937.080566
5643.645495	0.085584	0.119078	8011.624023
5643.646411	0.085594	0.119078	8090.028809
5644.663778	1.141611	0.115626	522.857971
5644.664672	1.619692	0.115626	1970.863037
5644.665615	1.609490	0.115626	3488.611816
5644.666579	1.565299	0.115626	4997.560059
5644.667513	1.522152	0.115626	6419.250000
5644.668381	1.072434	0.115626	7350.122559
5644.669350	0.114005	0.115626	7460.593750
5644.670275	0.085569	0.115626	7539.745117
5644.671161	0.085635	0.115626	7615.617676
5644.672049	0.085646	0.115626	7691.670898
5644.672994	0.085580	0.115626	7772.543945
5644.673944	0.085635	0.115626	7853.896973
5644.674833	0.085514	0.115626	7929.918945
5644.675748	0.085594	0.115626	8008.237793
5644.676703	0.085580	0.115626	8089.966309
5644.677625	0.085635	0.115626	8168.921387
5645.707196	1.083820	0.120029	457.371826
5645.708119	1.615261	0.120029	1948.258057
5645.709050	1.610834	0.120029	3447.944336
5645.709977	1.568188	0.120029	4901.655273
5645.710853	1.526686	0.120029	6239.032227
5645.711817	1.100636	0.120029	7300.045410
5645.712729	0.119004	0.120029	7408.577148
5645.713654	0.085551	0.120029	7487.711426
5645.714514	0.085573	0.120029	7561.303711
5645.715490	0.085613	0.120029	7644.861816
5645.716437	0.085631	0.120029	7725.954590
5645.717305	0.085653	0.120029	7800.301270
5645.718218	0.085605	0.120029	7878.458984
5645.719163	0.085620	0.120029	7959.370117
5645.720082	0.085565	0.120029	8038.004395
5645.720962	0.085584	0.120029	8113.317871
